Temperature Strain
305.532	0.361112
305.528	0.361112
305.516	0.361092
305.505	0.361001
305.496	0.36085
305.487	0.360835
305.478	0.360586
305.47	0.360309
305.455	0.36003
305.44	0.35977
305.424	0.359536
305.408	0.35936
305.393	0.3593
305.375	0.359252
305.353	0.359269
305.327	0.35935
305.297	0.359485
305.269	0.359641
305.242	0.359837
305.22	0.360035
305.198	0.360252
305.174	0.360451
305.147	0.36062
305.114	0.360775
305.078	0.360854
305.038	0.36097
304.997	0.361041
304.962	0.361087
304.927	0.361095
304.89	0.361089
304.853	0.361083
304.815	0.361038
304.777	0.360962
304.742	0.360872
304.708	0.360748
304.674	0.360574
304.643	0.360455
304.608	0.360245
304.569	0.360015
304.529	0.359792
304.485	0.3596
304.438	0.359441
304.388	0.359321
304.333	0.359355
304.275	0.359304
304.212	0.359266
304.149	0.359207
304.086	0.359179
304.027	0.359141
303.971	0.359133
303.917	0.359076
303.872	0.359025
303.832	0.358963
303.798	0.358933
303.768	0.358907
303.732	0.358891
303.69	0.358861
303.638	0.358831
303.579	0.358782
303.513	0.358694
303.445	0.358594
303.382	0.358436
303.32	0.358432
303.262	0.358203
303.208	0.358016
303.156	0.357883
303.101	0.357877
303.042	0.357852
302.98	0.357885
302.918	0.357992
302.855	0.35817
302.786	0.358354
302.717	0.358564
302.643	0.358772
302.564	0.358995
302.487	0.359186
302.412	0.359368
302.338	0.35954
302.265	0.359653
302.192	0.359719
302.119	0.359699
302.045	0.359548
301.968	0.35947
301.89	0.359349
301.81	0.359198
301.729	0.359034
301.645	0.358837
301.558	0.358612
301.471	0.358357
301.381	0.358073
301.289	0.357784
301.194	0.357397
301.094	0.357004
300.994	0.356601
300.894	0.356192
300.794	0.355795
300.695	0.355396
300.599	0.355055
300.505	0.354815
300.414	0.354697
300.323	0.354884
300.226	0.354998
300.124	0.355196
300.021	0.355459
299.92	0.35576
299.822	0.355899
299.728	0.356294
299.637	0.356718
299.546	0.357052
299.457	0.357247
299.369	0.357323
299.278	0.357287
299.192	0.357158
299.11	0.356954
299.033	0.356658
298.962	0.356269
298.895	0.355825
298.826	0.35538
298.756	0.354925
298.681	0.354431
298.602	0.354023
298.52	0.353674
298.431	0.353393
298.337	0.353199
298.242	0.353157
298.144	0.353157
298.044	0.353232
297.941	0.353369
297.83	0.353558
297.715	0.353765
297.604	0.353984
297.501	0.354228
297.403	0.354481
297.307	0.354737
297.211	0.355019
297.113	0.355326
297.009	0.355605
296.899	0.355877
296.79	0.356101
296.681	0.356229
296.569	0.356302
296.457	0.356323
296.345	0.356307
296.233	0.356133
296.123	0.356021
296.019	0.355847
295.92	0.355615
295.82	0.355312
295.718	0.354929
295.615	0.354454
295.517	0.353952
295.422	0.353469
295.329	0.35298
295.237	0.352496
295.142	0.352027
295.046	0.351565
294.948	0.351159
294.853	0.350838
294.763	0.350596
294.678	0.350538
294.597	0.350584
294.521	0.350756
294.443	0.350847
294.364	0.351173
294.287	0.35148
294.21	0.351737
294.135	0.351932
294.063	0.352036
293.991	0.35204
293.921	0.351957
293.845	0.351776
293.764	0.351566
293.677	0.351295
293.589	0.350995
293.498	0.35067
293.407	0.350349
293.312	0.350027
293.212	0.349736
293.11	0.349507
293.004	0.349341
292.893	0.349245
292.783	0.349283
292.672	0.349265
292.559	0.34927
292.442	0.349291
292.325	0.349307
292.211	0.349338
292.096	0.349377
291.982	0.349437
291.865	0.349533
291.746	0.349671
291.622	0.34987
291.496	0.350074
291.371	0.350305
291.248	0.350558
291.134	0.350759
291.025	0.351027
290.915	0.351275
290.804	0.351444
290.688	0.351523
290.574	0.351342
290.463	0.351246
290.353	0.351058
290.25	0.350786
290.149	0.350473
290.048	0.350133
289.944	0.349679
289.841	0.349124
289.74	0.348591
289.643	0.348109
289.547	0.34769
289.456	0.34733
289.367	0.347023
289.277	0.346777
289.182	0.346621
289.083	0.346544
288.983	0.346564
288.886	0.346646
288.786	0.346787
288.683	0.347081
288.573	0.347352
288.457	0.347622
288.338	0.347893
288.22	0.348121
288.099	0.348292
287.971	0.348391
287.84	0.348422
287.707	0.348352
287.575	0.34828
287.446	0.348124
287.318	0.347958
287.193	0.347745
287.064	0.347523
286.932	0.347336
286.797	0.347068
286.658	0.346789
286.516	0.346531
286.369	0.346221
286.215	0.345986
286.061	0.345845
285.911	0.345732
285.764	0.345657
285.617	0.34559
285.468	0.345528
285.319	0.345499
285.177	0.345513
285.043	0.345533
284.918	0.345573
284.797	0.345639
284.677	0.345705
284.555	0.345762
284.436	0.345786
284.323	0.345762
284.214	0.345735
284.106	0.345707
284.003	0.345699
283.901	0.345675
283.797	0.345578
283.692	0.345438
283.592	0.345144
283.493	0.344777
283.394	0.344326
283.29	0.343786
283.177	0.34323
283.064	0.342666
282.951	0.342136
282.839	0.341629
282.727	0.34119
282.616	0.340824
282.505	0.340548
282.386	0.340341
282.262	0.340278
282.138	0.340366
282.014	0.340603
281.892	0.340952
281.769	0.341378
281.643	0.341848
281.515	0.342324
281.389	0.342775
281.263	0.343187
281.138	0.34351
281.014	0.343759
280.889	0.34389
280.759	0.343937
280.627	0.343922
280.493	0.343837
280.356	0.343689
280.215	0.343447
280.071	0.343128
279.929	0.34279
279.79	0.342367
279.654	0.341924
279.517	0.341474
279.386	0.341027
279.261	0.340612
279.138	0.340256
279.014	0.339869
278.891	0.339491
278.768	0.339113
278.646	0.338746
278.525	0.338381
278.405	0.338041
278.283	0.337746
278.158	0.337544
278.032	0.337425
277.908	0.337376
277.784	0.337421
277.665	0.337589
277.548	0.337846
277.431	0.338176
277.309	0.338568
277.187	0.339004
277.067	0.339444
276.954	0.33984
276.847	0.340204
276.736	0.340502
276.626	0.340703
276.515	0.340786
276.401	0.340775
276.284	0.340633
276.166	0.340385
276.048	0.340029
275.927	0.339603
275.804	0.339132
275.677	0.338651
275.549	0.338157
275.417	0.33768
275.282	0.337189
275.144	0.336744
275.004	0.336332
274.859	0.335961
274.708	0.335699
274.557	0.335526
274.41	0.335397
274.262	0.335422
274.115	0.335508
273.969	0.335632
273.828	0.335847
273.69	0.336044
273.551	0.336212
273.412	0.336363
273.271	0.336463
273.129	0.336518
272.985	0.336496
272.841	0.336417
272.699	0.336286
272.559	0.33612
272.42	0.335978
272.285	0.335826
272.154	0.335705
272.023	0.335684
271.896	0.335614
271.769	0.335545
271.639	0.335476
271.511	0.335413
271.381	0.335356
271.248	0.335259
271.111	0.335166
270.972	0.335084
270.833	0.335002
270.696	0.334914
270.557	0.334816
270.42	0.334733
270.285	0.334659
270.151	0.334619
270.018	0.334662
269.886	0.334771
269.75	0.334969
269.611	0.335244
269.464	0.33553
269.314	0.335827
269.164	0.33604
269.015	0.33616
268.869	0.336136
268.727	0.335984
268.589	0.335759
268.455	0.335471
268.328	0.335132
268.204	0.334747
268.081	0.334326
267.956	0.333937
267.829	0.333556
267.697	0.333215
267.564	0.332789
267.436	0.332495
267.314	0.332243
267.197	0.332068
267.086	0.331981
266.976	0.331931
266.864	0.33192
266.75	0.332003
266.63	0.332097
266.505	0.332196
266.384	0.332298
266.268	0.332403
266.153	0.332527
266.033	0.332629
265.904	0.332721
265.772	0.332802
265.637	0.332866
265.501	0.33293
265.364	0.33294
265.228	0.332896
265.097	0.332819
264.971	0.332711
264.852	0.332573
264.738	0.332432
264.625	0.332288
264.514	0.332153
264.402	0.332065
264.289	0.331972
264.173	0.33184
264.054	0.331659
263.934	0.331458
263.818	0.331209
263.701	0.330951
263.586	0.3307
263.472	0.33047
263.358	0.330225
263.247	0.329981
263.138	0.32974
263.027	0.329515
262.917	0.329347
262.805	0.329235
262.684	0.329144
262.559	0.32915
262.428	0.329156
262.295	0.329232
262.16	0.329249
262.02	0.329285
261.878	0.329277
261.741	0.329195
261.609	0.329039
261.482	0.328789
261.361	0.328447
261.244	0.328042
261.129	0.327622
261.018	0.327175
260.908	0.326732
260.797	0.326338
260.685	0.326012
260.573	0.325714
260.461	0.325494
260.348	0.325388
260.235	0.32541
260.125	0.325468
260.015	0.325613
259.903	0.325764
259.786	0.325954
259.666	0.326139
259.544	0.326277
259.419	0.326454
259.289	0.326662
259.156	0.326847
259.021	0.327018
258.884	0.327134
258.747	0.327226
258.609	0.3273
258.47	0.327305
258.325	0.327252
258.174	0.327192
258.019	0.32712
257.861	0.327054
257.699	0.326963
257.54	0.326873
257.383	0.326712
257.231	0.326515
257.085	0.326235
256.933	0.325913
256.777	0.325543
256.618	0.325174
256.46	0.324787
256.309	0.324398
256.164	0.324032
256.029	0.323707
255.901	0.323402
255.779	0.323178
255.658	0.322937
255.533	0.322745
255.4	0.322619
255.263	0.322558
255.125	0.322544
254.988	0.322573
254.849	0.322756
254.704	0.322843
254.553	0.322922
254.4	0.322979
254.249	0.322995
254.1	0.323
253.951	0.322926
253.8	0.322796
253.646	0.322625
253.49	0.322411
253.333	0.32216
253.17	0.321869
253.002	0.321563
252.839	0.321252
252.68	0.320938
252.527	0.320649
252.378	0.320386
252.231	0.320181
252.086	0.320027
251.944	0.319967
251.801	0.319925
251.662	0.319905
251.525	0.319933
251.386	0.319975
251.243	0.320034
251.098	0.32006
250.952	0.320024
250.804	0.319958
250.655	0.319891
250.502	0.319832
250.346	0.320014
250.19	0.319993
250.036	0.32004
249.883	0.320113
249.735	0.320221
249.589	0.320335
249.448	0.320497
249.309	0.320649
249.172	0.320805
249.039	0.320848
248.91	0.320823
248.779	0.320717
248.644	0.3205
248.511	0.320241
248.382	0.319959
248.256	0.319659
248.127	0.319368
247.998	0.31908
247.867	0.318728
247.736	0.318514
247.601	0.318362
247.465	0.318262
247.33	0.318256
247.193	0.318307
247.054	0.318425
246.915	0.318572
246.776	0.318714
246.635	0.318835
246.489	0.318974
246.343	0.319076
246.202	0.319104
246.062	0.319041
245.925	0.318959
245.792	0.318834
245.658	0.318614
245.521	0.31843
245.376	0.318221
245.228	0.317943
245.078	0.317701
244.93	0.317463
244.789	0.31723
244.654	0.316978
244.521	0.316762
244.384	0.316551
244.241	0.31635
244.099	0.31619
243.962	0.316072
243.829	0.315945
243.697	0.31586
243.562	0.315745
243.425	0.31562
243.284	0.315463
243.145	0.315286
243.006	0.314978
242.871	0.314776
242.738	0.31455
242.609	0.314339
242.483	0.314113
242.352	0.313888
242.219	0.313706
242.08	0.313557
241.939	0.313429
241.795	0.313333
241.648	0.313226
241.497	0.313199
241.345	0.313193
241.191	0.313191
241.035	0.313184
240.88	0.313196
240.729	0.31325
240.58	0.313323
240.43	0.313406
240.281	0.313509
240.131	0.313608
239.986	0.313735
239.843	0.313903
239.702	0.314101
239.561	0.314346
239.418	0.314602
239.272	0.314847
239.132	0.315039
238.995	0.31517
238.858	0.315228
238.721	0.315228
238.582	0.315174
238.441	0.315046
238.3	0.314851
238.155	0.314567
238.004	0.314235
237.849	0.313843
237.688	0.313541
237.53	0.313086
237.373	0.31264
237.22	0.312203
237.07	0.311773
236.928	0.311391
236.789	0.311052
236.651	0.310757
236.516	0.310508
236.383	0.31031
236.258	0.30992
236.133	0.309803
236.015	0.309678
235.903	0.309555
235.792	0.309431
235.679	0.309302
235.567	0.309212
235.452	0.309187
235.333	0.309245
235.214	0.30942
235.095	0.309655
234.974	0.309942
234.849	0.310243
234.72	0.310534
234.583	0.310818
234.438	0.311088
234.29	0.311322
234.134	0.311526
233.982	0.311782
233.836	0.311892
233.695	0.311935
233.551	0.311932
233.408	0.311715
233.267	0.311535
233.129	0.311256
232.992	0.310921
232.854	0.310539
232.716	0.310142
232.576	0.309747
232.434	0.30935
232.289	0.308968
232.142	0.308587
231.993	0.308224
231.847	0.307869
231.696	0.307586
231.544	0.307237
231.392	0.306911
231.242	0.306629
231.093	0.30634
230.945	0.30603
230.797	0.305775
230.65	0.305531
230.505	0.305351
230.36	0.305251
230.218	0.305191
230.079	0.30518
229.942	0.305233
229.808	0.305336
229.677	0.305459
229.546	0.305634
229.418	0.305867
229.288	0.306127
229.16	0.306401
229.034	0.306805
228.908	0.307083
228.779	0.307337
228.644	0.30756
228.507	0.307783
228.369	0.308
228.23	0.308187
228.09	0.308369
227.952	0.308513
227.819	0.308601
227.69	0.308616
227.566	0.308561
227.445	0.30842
227.323	0.308203
227.202	0.307917
227.079	0.307576
226.956	0.30715
226.829	0.306669
226.702	0.306155
226.575	0.305628
226.442	0.305098
226.301	0.304546
226.151	0.304029
225.995	0.303519
225.832	0.303035
225.668	0.30261
225.504	0.302295
225.34	0.302087
225.176	0.301986
225.012	0.30197
224.85	0.302038
224.688	0.302173
224.526	0.302357
224.369	0.302604
224.219	0.302881
224.072	0.303167
223.93	0.303314
223.79	0.303452
223.65	0.303703
223.515	0.303896
223.377	0.304058
223.237	0.30418
223.094	0.304261
222.953	0.304298
222.813	0.304301
222.677	0.304263
222.541	0.304221
222.407	0.304136
222.274	0.30403
222.143	0.303918
222.014	0.30381
221.886	0.303697
221.76	0.30363
221.635	0.303498
221.512	0.303431
221.388	0.303219
221.267	0.302967
221.144	0.302703
221.019	0.302441
220.895	0.302179
220.769	0.302002
220.643	0.301824
220.516	0.301649
220.39	0.30148
220.263	0.301306
220.135	0.30112
220.006	0.300929
219.87	0.300721
219.733	0.300485
219.595	0.300371
219.455	0.300121
219.314	0.299885
219.171	0.299493
219.027	0.299269
218.882	0.29907
218.732	0.298899
218.582	0.298782
218.43	0.298712
218.277	0.298695
218.123	0.298741
217.97	0.298839
217.818	0.298969
217.668	0.299128
217.517	0.299311
217.365	0.299501
217.21	0.299694
217.048	0.299911
216.885	0.300093
216.723	0.300288
216.562	0.300422
216.402	0.300494
216.244	0.30055
216.086	0.300531
215.927	0.300463
215.77	0.300375
215.616	0.300267
215.466	0.300146
215.321	0.300007
215.181	0.299861
215.043	0.299711
214.902	0.299551
214.758	0.2994
214.613	0.29926
214.466	0.299126
214.318	0.298983
214.169	0.298862
214.021	0.298745
213.874	0.298643
213.727	0.298601
213.579	0.298616
213.431	0.298705
213.284	0.298878
213.141	0.299117
213.001	0.299381
212.862	0.299667
212.726	0.299925
212.589	0.300202
212.449	0.300465
212.308	0.300695
212.168	0.300864
212.029	0.300985
211.891	0.301064
211.754	0.301039
211.614	0.300947
211.471	0.300794
211.328	0.30058
211.184	0.300295
211.038	0.299982
210.894	0.299642
210.752	0.299305
210.61	0.299029
210.467	0.298722
210.33	0.29848
210.197	0.298281
210.067	0.298154
209.938	0.298125
209.809	0.298281
209.68	0.298362
209.551	0.29847
209.42	0.298612
209.293	0.298745
209.166	0.298871
209.04	0.298987
208.914	0.299092
208.783	0.299188
208.648	0.299283
208.51	0.299376
208.371	0.299472
208.229	0.299614
208.086	0.299768
207.946	0.299906
207.806	0.300097
207.667	0.300328
207.53	0.300604
207.397	0.300797
207.269	0.301099
207.143	0.301364
207.017	0.301574
206.895	0.301715
206.778	0.301803
206.662	0.301792
206.551	0.301723
206.44	0.301618
206.331	0.301486
206.223	0.301337
206.115	0.301212
206.006	0.301088
205.895	0.301089
205.781	0.300997
205.669	0.300962
205.554	0.300964
205.443	0.301023
205.333	0.301317
205.221	0.301554
205.112	0.30188
205.004	0.30231
204.896	0.302837
204.79	0.303446
204.684	0.304095
204.576	0.304736
204.468	0.305361
204.358	0.305962
204.245	0.306535
204.127	0.307091
204.006	0.307627
203.883	0.308142
203.758	0.308642
203.631	0.309125
203.505	0.309609
203.378	0.31007
203.25	0.310523
203.122	0.310964
202.998	0.311446
202.872	0.311941
202.743	0.312407
202.612	0.312862
202.477	0.313296
202.338	0.313697
202.2	0.314068
202.064	0.314406
201.929	0.314725
201.795	0.315021
201.661	0.315306
201.522	0.315586
201.381	0.31585
201.24	0.316087
201.1	0.316317
200.954	0.316513
200.807	0.316766
200.659	0.316905
200.513	0.317017
200.369	0.317109
200.227	0.317214
200.086	0.317378
199.946	0.317569
199.801	0.317829
199.653	0.318111
199.507	0.318437
199.36	0.31881
199.217	0.319251
199.077	0.319733
198.935	0.320255
198.789	0.320816
198.642	0.321409
198.493	0.322009
198.343	0.322604
198.192	0.3232
198.039	0.323764
197.884	0.324369
197.726	0.324924
197.565	0.325444
197.404	0.326045
197.242	0.326674
197.08	0.32732
196.914	0.328044
196.75	0.328776
196.583	0.329555
196.417	0.330377
196.25	0.331239
196.081	0.332139
195.912	0.333084
195.744	0.334081
195.579	0.335137
195.416	0.336242
195.249	0.337395
195.086	0.338599
194.922	0.339832
194.757	0.341138
194.596	0.342272
194.436	0.343598
194.276	0.344994
194.116	0.34643
193.956	0.347922
193.796	0.349485
193.636	0.351173
193.476	0.352989
193.316	0.354951
193.157	0.357061
193.001	0.35931
192.846	0.361681
192.694	0.364149
192.545	0.366717
192.392	0.369363
192.237	0.37206
192.081	0.374804
191.922	0.377551
191.767	0.380308
191.611	0.382963
191.457	0.385719
191.307	0.388408
191.155	0.391081
191.009	0.393722
190.866	0.396316
190.723	0.398812
190.577	0.401291
190.428	0.403647
190.277	0.405912
190.128	0.408125
189.981	0.410299
189.836	0.412484
189.693	0.414687
189.549	0.416931
189.403	0.419198
189.256	0.421491
189.106	0.423804
188.954	0.42615
188.798	0.428515
188.644	0.430898
188.491	0.43329
188.338	0.435757
188.187	0.438201
188.036	0.440664
187.886	0.443143
187.737	0.445644
187.587	0.448198
187.439	0.450812
187.298	0.453494
187.163	0.456259
187.033	0.459102
186.906	0.462033
186.781	0.465038
186.658	0.468167
186.541	0.471355
186.426	0.474601
186.312	0.477902
186.197	0.481248
186.08	0.484608
185.964	0.488004
185.846	0.491342
185.729	0.494792
185.614	0.498266
185.501	0.501765
185.39	0.505294
185.279	0.508835
185.171	0.512445
185.059	0.51617
184.946	0.519959
184.83	0.523864
184.716	0.527891
184.602	0.532047
184.487	0.536331
184.372	0.540763
184.254	0.545328
184.132	0.550025
184.007	0.55485
183.878	0.559812
183.747	0.564881
183.617	0.570079
183.487	0.575312
183.358	0.580663
183.229	0.586043
183.1	0.591451
182.972	0.596874
182.845	0.602338
182.717	0.607781
182.589	0.613259
182.464	0.618767
182.34	0.624316
182.217	0.629901
182.094	0.635528
181.971	0.641227
181.847	0.646992
181.723	0.652823
181.601	0.658746
181.477	0.66476
181.353	0.670841
181.224	0.677
181.092	0.683244
180.963	0.689722
180.836	0.696101
180.712	0.702475
180.594	0.708898
180.479	0.715346
180.363	0.7218
180.245	0.728269
180.126	0.734749
180.008	0.741278
179.894	0.747833
179.781	0.754436
179.674	0.761104
179.568	0.767814
179.463	0.774595
179.356	0.781452
179.249	0.788413
179.138	0.795482
179.026	0.802664
178.914	0.809954
178.802	0.817364
178.685	0.824878
178.569	0.832501
178.453	0.840195
178.332	0.847956
178.206	0.855779
178.08	0.863687
177.952	0.871588
177.824	0.879574
177.694	0.887629
177.563	0.895726
177.431	0.903874
177.299	0.91206
177.171	0.920292
177.047	0.928576
176.917	0.936927
176.787	0.945343
176.655	0.953846
176.524	0.962441
176.388	0.971136
176.249	0.979934
176.107	0.988822
175.964	0.997754
175.823	1.00681
175.685	1.01594
175.549	1.02514
175.413	1.0344
175.278	1.04371
175.146	1.05307
175.015	1.06249
174.889	1.07195
174.762	1.08145
174.638	1.09098
174.517	1.10054
174.394	1.11008
174.27	1.11964
174.146	1.12922
174.021	1.13886
173.897	1.14855
173.771	1.15832
173.643	1.16817
173.513	1.17811
173.384	1.18816
173.256	1.19833
173.124	1.20859
172.991	1.21897
172.857	1.22948
172.723	1.24009
172.588	1.25074
172.451	1.26149
172.313	1.27228
172.173	1.28309
172.035	1.29388
171.899	1.30466
171.764	1.3154
171.63	1.32611
171.495	1.33677
171.362	1.34741
171.226	1.35799
171.09	1.36853
170.952	1.37903
170.817	1.38953
170.684	1.40004
170.553	1.41055
170.422	1.42108
170.29	1.43176
170.16	1.44232
170.027	1.45287
169.893	1.46344
169.759	1.47403
169.624	1.48464
169.49	1.49532
169.358	1.50603
169.226	1.51675
169.096	1.52745
168.964	1.53812
168.837	1.54876
168.708	1.55934
168.576	1.5699
168.448	1.58041
168.322	1.59087
168.195	1.6013
168.07	1.6117
167.947	1.62203
167.825	1.63242
167.702	1.64279
167.58	1.65315
167.458	1.66353
167.332	1.67391
167.203	1.68429
167.078	1.6947
166.955	1.70513
166.833	1.71555
166.709	1.72598
166.588	1.73639
166.469	1.74678
166.35	1.75712
166.23	1.7674
166.109	1.77763
165.987	1.7878
165.864	1.79791
165.739	1.80797
165.614	1.81798
165.488	1.82793
165.363	1.83791
165.236	1.84781
165.109	1.8577
164.982	1.86755
164.856	1.87736
164.731	1.88713
164.608	1.89685
164.487	1.90656
164.367	1.91625
164.247	1.92594
164.127	1.93562
164.007	1.9453
163.89	1.95499
163.773	1.96467
163.65	1.97433
163.524	1.98397
163.398	1.99357
163.268	2.00312
163.138	2.01267
163.009	2.02222
162.88	2.03174
162.752	2.04126
162.623	2.05077
162.495	2.06025
162.366	2.06967
162.237	2.07903
162.11	2.08832
161.982	2.09754
161.854	2.10672
161.725	2.11585
161.59	2.12497
161.452	2.13407
161.31	2.14317
161.164	2.15223
161.016	2.1613
160.867	2.1703
160.718	2.17926
160.57	2.18819
160.42	2.19706
160.271	2.2059
160.122	2.21466
159.972	2.2233
159.821	2.23183
159.672	2.24023
159.525	2.24852
159.38	2.25669
159.238	2.26474
159.096	2.27271
158.956	2.2806
158.818	2.28841
158.681	2.29616
158.544	2.30387
158.407	2.31152
158.269	2.31909
158.131	2.32665
157.993	2.33418
157.854	2.34167
157.714	2.34914
157.575	2.35657
157.434	2.36397
157.293	2.37128
157.151	2.3784
157.009	2.38557
156.867	2.39267
156.724	2.39968
156.58	2.4066
156.436	2.41341
156.293	2.4201
156.151	2.42671
156.01	2.43324
155.87	2.43974
155.731	2.44618
155.593	2.45259
155.456	2.45897
155.318	2.46533
155.178	2.47168
155.039	2.47801
154.898	2.48433
154.756	2.49064
154.612	2.497
154.466	2.5032
154.323	2.50933
154.18	2.51538
154.037	2.52131
153.894	2.52712
153.749	2.53282
153.605	2.53838
153.462	2.54386
153.318	2.54925
153.179	2.55459
153.042	2.55987
152.907	2.56515
152.772	2.57036
152.638	2.57555
152.507	2.58073
152.377	2.5859
152.247	2.59106
152.116	2.5962
151.987	2.60133
151.857	2.60647
151.729	2.61149
151.598	2.61648
151.469	2.62141
151.34	2.62625
151.212	2.63102
151.086	2.63571
150.961	2.64032
150.836	2.64485
150.711	2.64929
150.584	2.6537
150.456	2.65806
150.328	2.66236
150.196	2.66662
150.064	2.67083
149.931	2.67499
149.799	2.67912
149.67	2.68322
149.541	2.68729
149.409	2.69127
149.275	2.69518
149.136	2.69903
148.993	2.70278
148.847	2.70644
148.697	2.71001
148.546	2.71352
148.395	2.71696
148.245	2.72033
148.094	2.72367
147.945	2.72695
147.796	2.73035
147.648	2.73356
147.501	2.73672
147.354	2.73984
147.206	2.74293
147.059	2.74596
146.912	2.74895
146.767	2.75193
146.623	2.75486
146.481	2.75773
146.34	2.76051
146.199	2.76324
146.061	2.76593
145.924	2.76857
145.787	2.77116
145.649	2.77371
145.51	2.77624
145.371	2.77874
145.23	2.7812
145.088	2.78363
144.943	2.78609
144.799	2.78854
144.653	2.79099
144.51	2.79345
144.37	2.79595
144.232	2.79842
144.095	2.80091
143.954	2.80339
143.811	2.80584
143.667	2.80825
143.522	2.81062
143.377	2.81298
143.232	2.81529
143.085	2.81756
142.938	2.81978
142.789	2.82194
142.641	2.82395
142.493	2.82604
142.347	2.82809
142.203	2.8301
142.058	2.83209
141.914	2.83399
141.769	2.83589
141.626	2.83778
141.48	2.83962
141.334	2.84143
141.188	2.8432
141.041	2.84495
140.893	2.84666
140.743	2.84834
140.593	2.85003
140.442	2.85172
140.292	2.85342
140.144	2.8551
139.996	2.85681
139.847	2.85853
139.699	2.86026
139.552	2.86199
139.406	2.86372
139.262	2.86546
139.118	2.86717
138.974	2.86888
138.828	2.8705
138.683	2.87212
138.538	2.87371
138.393	2.87522
138.251	2.87671
138.111	2.87816
137.972	2.87957
137.834	2.88097
137.696	2.88236
137.556	2.88376
137.416	2.88513
137.275	2.88653
137.134	2.88799
136.99	2.88946
136.844	2.89096
136.696	2.89248
136.548	2.89403
136.398	2.89559
136.248	2.89712
136.098	2.89862
135.945	2.90008
135.794	2.9015
135.641	2.90286
135.489	2.90417
135.336	2.90542
135.183	2.90663
135.03	2.9078
134.879	2.90883
134.729	2.90997
134.581	2.9111
134.433	2.91227
134.289	2.91346
134.144	2.91468
134.002	2.91593
133.861	2.91722
133.72	2.91851
133.577	2.9198
133.432	2.92111
133.288	2.92223
133.143	2.92348
133	2.92472
132.858	2.92591
132.718	2.92703
132.579	2.92812
132.442	2.92916
132.306	2.93018
132.17	2.93119
132.036	2.93223
131.902	2.9333
131.768	2.9344
131.634	2.93552
131.499	2.93664
131.364	2.93781
131.228	2.93899
131.092	2.94017
130.956	2.94134
130.821	2.9425
130.685	2.94365
130.549	2.94474
130.414	2.94579
130.278	2.94679
130.142	2.94774
130.006	2.94863
129.871	2.94946
129.734	2.95021
129.598	2.95091
129.46	2.95157
129.324	2.95217
129.189	2.95273
129.055	2.95334
128.922	2.95393
128.789	2.95454
128.653	2.95519
128.517	2.95588
128.381	2.95666
128.245	2.9574
128.109	2.95814
127.973	2.95891
127.838	2.95967
127.701	2.96045
127.566	2.96118
127.432	2.96187
127.299	2.96255
127.167	2.9632
127.035	2.9638
126.903	2.9644
126.77	2.96496
126.636	2.96548
126.504	2.96595
126.374	2.96639
126.246	2.96683
126.118	2.96726
125.994	2.96766
125.871	2.96803
125.748	2.96842
125.628	2.96879
125.507	2.96911
125.385	2.96939
125.263	2.96963
125.14	2.96983
125.015	2.97
124.89	2.97015
124.765	2.97026
124.638	2.97042
124.511	2.97048
124.384	2.9705
124.256	2.9705
124.13	2.97047
124.003	2.97042
123.874	2.97034
123.749	2.97027
123.622	2.97017
123.496	2.97004
123.369	2.96988
123.241	2.96968
123.114	2.96946
122.986	2.96927
122.858	2.96907
122.731	2.96891
122.603	2.96877
122.476	2.96861
122.349	2.96856
122.223	2.96841
122.097	2.96842
121.971	2.96849
121.845	2.9686
121.72	2.96877
121.595	2.9691
121.47	2.96935
121.344	2.96962
121.219	2.96987
121.093	2.97012
120.966	2.97035
120.837	2.97057
120.707	2.97076
120.577	2.97097
120.445	2.97117
120.317	2.97138
120.186	2.97163
120.057	2.97196
119.93	2.97227
119.804	2.97258
119.68	2.97301
119.556	2.97347
119.432	2.97402
119.309	2.97454
119.186	2.97507
119.064	2.9756
118.945	2.9761
118.826	2.97656
118.707	2.977
118.589	2.97745
118.47	2.97783
118.35	2.97819
118.231	2.97854
118.111	2.97888
117.988	2.97922
117.864	2.97952
117.739	2.97989
117.616	2.9803
117.491	2.98076
117.364	2.98126
117.238	2.98181
117.112	2.98242
116.985	2.98307
116.856	2.98375
116.728	2.98444
116.598	2.98515
116.466	2.98582
116.333	2.98634
116.197	2.98678
116.06	2.9871
115.923	2.98727
115.786	2.98733
115.65	2.98735
115.515	2.98718
115.379	2.98692
115.243	2.98661
115.105	2.98627
114.967	2.98596
114.826	2.98566
114.684	2.98543
114.542	2.98523
114.401	2.98506
114.259	2.98493
114.117	2.98478
113.976	2.98466
113.834	2.98458
113.694	2.98452
113.553	2.98446
113.412	2.98438
113.271	2.98457
113.131	2.98447
112.991	2.9845
112.851	2.98461
112.71	2.98482
112.57	2.98517
112.429	2.98565
112.287	2.98626
112.145	2.98695
112.002	2.98771
111.858	2.98852
111.714	2.98937
111.569	2.99021
111.423	2.9911
111.277	2.99199
111.131	2.99283
110.989	2.9936
110.847	2.99429
110.705	2.99497
110.566	2.99556
110.428	2.99611
110.287	2.99663
110.15	2.99712
110.011	2.99761
109.873	2.99795
109.736	2.99831
109.599	2.99861
109.463	2.99886
109.328	2.99907
109.192	2.9993
109.057	2.99947
108.922	2.99976
108.786	2.99995
108.65	3.00013
108.514	3.00031
108.377	3.00046
108.241	3.00062
108.105	3.00078
107.969	3.00096
107.835	3.00114
107.702	3.00135
107.571	3.00159
107.441	3.00185
107.312	3.00213
107.184	3.00243
107.059	3.00269
106.933	3.00298
106.806	3.00326
106.679	3.00348
106.552	3.00375
106.426	3.00404
106.298	3.00427
106.172	3.00434
106.046	3.00455
105.921	3.00475
105.797	3.00495
105.672	3.00515
105.547	3.00537
105.422	3.0056
105.298	3.00584
105.172	3.00609
105.044	3.00632
104.918	3.0065
104.793	3.00662
104.67	3.00667
104.547	3.00667
104.424	3.00669
104.301	3.00653
104.178	3.00632
104.055	3.00612
103.931	3.00579
103.808	3.00539
103.686	3.00493
103.564	3.00445
103.441	3.00397
103.317	3.00351
103.192	3.0031
103.065	3.00277
102.937	3.00256
102.808	3.00245
102.679	3.00243
102.549	3.00253
102.42	3.00274
102.291	3.00302
102.163	3.00341
102.035	3.00389
101.906	3.00441
101.778	3.0049
101.648	3.00544
101.517	3.00599
101.385	3.00654
101.252	3.00711
101.119	3.00769
100.985	3.00829
100.85	3.0089
100.717	3.00955
100.585	3.0102
100.453	3.01084
100.321	3.0115
100.188	3.01213
100.054	3.01251
99.919	3.01314
99.7824	3.01364
99.6451	3.01399
99.5065	3.01414
99.3664	3.01418
99.2273	3.01411
99.0895	3.0139
98.9519	3.01361
98.8137	3.01326
98.676	3.01289
98.54	3.0125
98.4044	3.01208
98.2693	3.01166
98.1351	3.01125
98.0004	3.01088
97.866	3.01055
97.7318	3.01028
97.5957	3.00999
97.4588	3.00978
97.3207	3.00957
97.1815	3.00935
97.0448	3.00922
96.908	3.00905
96.7685	3.00904
96.6307	3.00902
96.4938	3.00907
96.3556	3.00919
96.2187	3.00938
96.0822	3.00962
95.946	3.00989
95.8103	3.01019
95.6756	3.01049
95.5423	3.01079
95.4087	3.01109
95.276	3.01141
95.1439	3.01169
95.0128	3.01195
94.8813	3.01219
94.7491	3.01242
94.6159	3.0126
94.4815	3.01275
94.3479	3.0129
94.2136	3.01302
94.0786	3.01316
93.9427	3.01335
93.8059	3.01352
93.6685	3.0137
93.5307	3.0139
93.3937	3.01412
93.2569	3.01433
93.1215	3.01453
92.9882	3.01481
92.8548	3.01491
92.724	3.01496
92.5945	3.01493
92.4638	3.01481
92.3334	3.01466
92.2033	3.0144
92.0725	3.01412
91.942	3.01378
91.8115	3.01344
91.679	3.01314
91.5485	3.01288
91.4196	3.01268
91.2909	3.01255
91.1623	3.01245
91.0336	3.01246
90.906	3.01247
90.779	3.01247
90.6502	3.01256
90.5202	3.01271
90.3882	3.01289
90.2564	3.01308
90.1245	3.01315
89.9924	3.01337
89.8624	3.01359
89.733	3.01383
89.6036	3.01405
89.4745	3.01428
89.3451	3.01454
89.2145	3.0148
89.0817	3.01507
88.9479	3.01532
88.8149	3.01556
88.682	3.01579
88.5483	3.01597
88.4144	3.01619
88.2806	3.01632
88.1457	3.01643
88.0107	3.01647
87.8732	3.01669
87.735	3.01664
87.5979	3.01659
87.4624	3.01656
87.3281	3.0165
87.1951	3.01647
87.0606	3.01644
86.9257	3.01642
86.7926	3.01641
86.6581	3.01638
86.5236	3.01633
86.3902	3.01626
86.2571	3.01618
86.1237	3.01613
85.9897	3.01604
85.8556	3.0159
85.7205	3.01572
85.5845	3.01553
85.4478	3.01535
85.3105	3.0151
85.1737	3.01487
85.0364	3.01467
84.8988	3.01451
84.7612	3.0144
84.6243	3.01436
84.4873	3.0144
84.3482	3.0145
84.2099	3.01467
84.0722	3.01487
83.9343	3.01513
83.7979	3.01542
83.6604	3.01567
83.5235	3.01598
83.3856	3.01626
83.2488	3.0165
83.112	3.01669
82.974	3.01692
82.8387	3.01699
82.7015	3.01701
82.5626	3.01703
82.4248	3.01698
82.2867	3.0169
82.1484	3.01683
82.0104	3.01676
81.8728	3.01672
81.7356	3.01668
81.6029	3.01672
81.47	3.01679
81.3374	3.01685
81.2044	3.01696
81.0717	3.01709
80.938	3.01719
80.8039	3.01728
80.6708	3.01733
80.5388	3.01747
80.4074	3.01746
80.2766	3.01741
80.1454	3.01731
80.0146	3.01718
79.884	3.01705
79.7527	3.01688
79.6216	3.01672
79.4905	3.01658
79.36	3.01652
79.2306	3.0165
79.1019	3.01653
78.9741	3.01658
78.8486	3.01671
78.7202	3.01686
78.5923	3.01703
78.4654	3.01724
78.3368	3.01746
78.2071	3.01769
78.0769	3.01792
77.9463	3.01814
77.8172	3.01836
77.6874	3.01856
77.5574	3.01877
77.426	3.01895
77.2936	3.01912
77.1612	3.01924
77.0277	3.01935
76.8949	3.01947
76.7624	3.01966
76.6297	3.01967
76.4956	3.01965
76.3619	3.01958
76.2288	3.0195
76.0973	3.01939
75.9657	3.01926
75.8341	3.01905
75.7026	3.01892
75.5697	3.01876
75.4358	3.01863
75.3005	3.0185
75.1645	3.0184
75.0267	3.01829
74.89	3.01821
74.7522	3.01812
74.6145	3.01801
74.4777	3.01769
74.3412	3.01759
74.2059	3.01744
74.0691	3.01721
73.931	3.01698
73.7915	3.01671
73.653	3.01642
73.5137	3.01609
73.3753	3.01581
73.2377	3.01555
73.099	3.01536
72.9599	3.01523
72.8207	3.01518
72.6813	3.0152
72.5422	3.0153
72.4037	3.01548
72.2635	3.01573
72.1253	3.01602
71.9865	3.01632
71.8491	3.01669
71.7115	3.01704
71.5707	3.01738
71.431	3.01767
71.29	3.01792
71.1501	3.01812
71.0079	3.01828
70.868	3.01839
70.7277	3.01849
70.5873	3.01857
70.446	3.01865
70.305	3.01877
70.1638	3.01892
70.0227	3.0191
69.8807	3.01931
69.7375	3.01955
69.5944	3.0198
69.4504	3.01999
69.3064	3.02026
69.1613	3.02054
69.0166	3.02074
68.8714	3.02096
68.726	3.02114
68.5786	3.02125
68.4336	3.0213
68.2876	3.02129
68.1409	3.02109
67.9961	3.02093
67.8513	3.02073
67.7068	3.02053
67.5624	3.02034
67.4171	3.02013
67.273	3.01997
67.1286	3.01983
66.9846	3.01973
66.8402	3.01951
66.6953	3.01945
66.5507	3.01941
66.4055	3.01937
66.2599	3.01933
66.1126	3.01927
65.9671	3.0192
65.8196	3.01913
65.6718	3.01903
65.5213	3.01886
65.3715	3.01867
65.2202	3.01846
65.069	3.01824
64.9182	3.01802
64.7681	3.01782
64.6195	3.01766
64.4722	3.01748
64.3276	3.01738
64.1832	3.0173
64.0425	3.01724
63.8995	3.0172
63.756	3.01718
63.6133	3.01718
63.4697	3.01719
63.3274	3.01719
63.1852	3.01722
63.0429	3.01726
62.9007	3.01728
62.7591	3.01726
62.6172	3.01725
62.4737	3.01727
62.3306	3.01726
62.1886	3.01726
62.046	3.01729
61.9041	3.01733
61.7617	3.01737
61.619	3.01752
61.4772	3.01758
61.3335	3.01766
61.191	3.01769
61.0481	3.01772
60.9054	3.01775
60.7636	3.01776
60.6202	3.01776
60.4776	3.01776
60.3345	3.01778
60.1932	3.01781
60.0497	3.01788
59.9063	3.018
59.7625	3.01819
59.6185	3.01838
59.475	3.01863
59.333	3.01892
59.1921	3.01926
59.0527	3.01957
58.9145	3.0199
58.7757	3.02021
58.6368	3.0205
58.4979	3.02078
58.3598	3.02101
58.2209	3.0212
58.0829	3.02137
57.9448	3.02151
57.8078	3.02164
57.6713	3.02175
57.5367	3.02185
57.4019	3.02196
57.2674	3.02207
57.1341	3.02218
57.0017	3.0223
56.8695	3.0224
56.7388	3.02253
56.6087	3.02265
56.479	3.02273
56.3502	3.02282
56.2224	3.02287
56.0955	3.02289
55.9698	3.02288
55.845	3.02285
55.7214	3.0228
55.6001	3.02273
55.4799	3.02269
55.3606	3.02263
55.2415	3.0226
55.1239	3.02258
55.0082	3.0226
54.8945	3.02266
54.7812	3.02274
54.67	3.02286
54.56	3.02301
54.449	3.02317
54.3395	3.02351
54.2287	3.02368
54.1179	3.02385
54.0039	3.02393
53.8928	3.02405
53.7823	3.02412
53.673	3.02415
53.5636	3.02415
53.4553	3.02408
53.3482	3.02402
53.2427	3.02394
53.1383	3.02382
53.0351	3.02367
52.9326	3.02351
52.8309	3.02335
52.7297	3.02318
52.6295	3.023
52.5298	3.0228
52.4306	3.02262
52.3318	3.02249
52.2337	3.02238
52.136	3.02228
52.0396	3.02223
51.9438	3.02216
51.8476	3.02211
51.7533	3.0221
51.6593	3.02205
51.5667	3.02207
51.4756	3.02208
51.3849	3.02212
51.2948	3.02215
51.2076	3.02219
51.1201	3.02223
51.0339	3.02228
50.9505	3.02233
50.8664	3.02237
50.7791	3.02243
50.6935	3.0225
50.6069	3.02257
50.5209	3.02262
50.435	3.02269
50.3504	3.02276
50.2669	3.02279
50.1834	3.0228
50.1008	3.02282
50.0184	3.02299
49.9364	3.02301
49.8546	3.02305
49.7734	3.02314
49.6917	3.02326
49.6106	3.0234
49.5305	3.02357
49.4503	3.02376
49.3697	3.02396
49.2908	3.02417
49.2114	3.02435
49.1321	3.0245
49.0542	3.02462
48.9755	3.02469
48.8975	3.02472
48.8202	3.02471
48.743	3.02465
48.6657	3.02454
48.5874	3.0244
48.5091	3.02424
48.4305	3.02405
48.3521	3.02382
48.2744	3.02359
48.1968	3.02337
48.1183	3.02316
48.0407	3.02298
47.9639	3.02284
47.8868	3.0227
47.81	3.02258
47.7351	3.02247
47.6592	3.02236
47.5842	3.02228
47.5098	3.02218
47.4372	3.02209
47.365	3.02203
47.2925	3.02198
47.2197	3.02198
47.1471	3.022
47.0735	3.02204
47.0004	3.02211
46.9266	3.0222
46.8522	3.0223
46.7781	3.02241
46.705	3.0225
46.6327	3.0226
46.5608	3.02239
46.4887	3.02246
46.418	3.02249
46.3478	3.0225
46.279	3.02251
46.2119	3.02252
46.1463	3.02254
46.0812	3.02254
46.0171	3.02252
45.9552	3.02251
45.893	3.0225
45.8307	3.02251
45.77	3.02253
45.7095	3.0226
45.6501	3.0226
45.5906	3.02261
45.5302	3.02262
45.4711	3.0226
45.4112	3.0226
45.3507	3.02258
45.2908	3.02253
45.234	3.02248
45.1762	3.02243
45.1198	3.02236
45.0644	3.02226
45.0094	3.0222
44.9551	3.02216
44.9003	3.02215
44.847	3.02219
44.7939	3.02218
44.7417	3.02219
44.6914	3.02218
44.6411	3.02212
44.5917	3.02209
44.5433	3.02204
44.4959	3.02197
44.4493	3.0219
44.4031	3.02177
44.3582	3.02166
44.3126	3.02154
44.2684	3.02143
44.2248	3.02133
44.1802	3.02122
44.1376	3.02083
44.095	3.02078
44.0506	3.02074
44.0068	3.02073
43.9648	3.02074
43.9226	3.02078
43.8801	3.02083
43.8392	3.02093
43.7977	3.02103
43.756	3.02115
43.7153	3.02128
43.6739	3.0214
43.633	3.02134
43.5917	3.02142
43.5504	3.02147
43.5102	3.02146
43.4686	3.02143
43.4285	3.02138
43.3894	3.02129
43.3503	3.02118
43.3112	3.02108
43.2717	3.02095
43.2351	3.02082
43.1994	3.02069
43.1638	3.0206
43.1306	3.02048
43.0968	3.02046
43.0646	3.02047
43.0337	3.02053
43.0015	3.02063
42.9683	3.02077
42.9353	3.02093
42.9033	3.02112
42.872	3.02134
42.8404	3.02154
42.808	3.02173
42.7761	3.0219
42.7444	3.02204
42.711	3.02215
42.6776	3.02223
42.6424	3.0223
42.6064	3.02236
42.5701	3.02241
42.5341	3.02242
42.4955	3.02246
42.4569	3.02246
42.4186	3.02246
42.3804	3.02243
42.3422	3.02239
42.3049	3.02231
42.2689	3.02212
42.2327	3.02204
42.1979	3.02195
42.164	3.02185
42.1302	3.02179
42.0963	3.02177
42.0632	3.02179
42.0301	3.02209
41.9968	3.0221
41.9635	3.02211
41.931	3.02211
41.8995	3.02206
41.8673	3.02196
41.8357	3.02179
41.8052	3.02159
41.7733	3.02136
41.7408	3.02108
41.7077	3.02078
41.6746	3.02043
41.6416	3.02005
41.6107	3.01966
41.5795	3.01926
41.5482	3.01887
41.5176	3.01848
41.4867	3.01812
41.4549	3.018
41.4241	3.0177
41.3941	3.01744
41.3641	3.01722
41.333	3.01712
41.3042	3.01706
41.2762	3.01714
41.2478	3.01729
41.2208	3.01755
41.1946	3.01794
41.1697	3.01838
41.1446	3.01897
41.1195	3.01962
41.0958	3.02031
41.0721	3.02101
41.0483	3.0217
41.0268	3.02234
41.0041	3.02296
40.9813	3.02353
40.9574	3.02404
40.9336	3.0245
40.9105	3.02491
40.8861	3.02526
40.8614	3.02557
40.837	3.02584
40.8111	3.02638
40.7878	3.02651
40.7632	3.02662
40.7381	3.02671
40.7143	3.02676
40.6902	3.02681
40.6658	3.02681
40.6418	3.02677
40.6171	3.02669
40.5927	3.02658
40.5712	3.02644
40.5474	3.0263
40.5235	3.02615
40.501	3.02599
40.4777	3.02583
40.4559	3.02568
40.4341	3.02552
40.4123	3.02536
40.3913	3.0252
40.3721	3.02503
40.3524	3.02482
40.3331	3.02464
40.3148	3.02445
40.2963	3.02423
40.2784	3.02392
40.2607	3.02371
40.2425	3.02342
40.2244	3.02314
40.2063	3.02285
40.1877	3.02251
40.1697	3.02216
40.1513	3.0218
40.1339	3.02142
40.1179	3.02105
40.1033	3.02069
40.0881	3.02033
40.0732	3.01998
40.0583	3.01966
40.042	3.01933
40.0244	3.01905
40.0075	3.01879
39.9909	3.01858
39.9746	3.01841
39.9566	3.0183
39.9389	3.01824
39.919	3.01825
39.9004	3.01831
39.8809	3.01842
39.861	3.01854
39.8413	3.01846
39.8221	3.01875
39.8023	3.01895
39.7837	3.01916
39.7653	3.01938
39.747	3.01958
39.7276	3.01974
39.7084	3.01986
39.688	3.01998
39.6686	3.0201
39.649	3.02022
39.628	3.02035
39.6082	3.0205
39.5876	3.02067
39.5679	3.02087
39.5476	3.0211
39.528	3.02135
39.5084	3.02165
39.489	3.02196
39.4687	3.0223
39.4502	3.02268
39.4322	3.02309
39.4139	3.02353
39.3964	3.024
39.3793	3.02446
39.3632	3.02506
39.3478	3.02532
39.3314	3.02577
39.3159	3.02621
39.3009	3.02669
39.2857	3.02704
39.2721	3.02735
39.2581	3.02756
39.2444	3.02765
39.2307	3.02759
39.217	3.02737
39.2019	3.02701
39.1887	3.02651
39.1746	3.02589
39.1613	3.02522
39.1483	3.02449
39.1341	3.02375
39.1198	3.023
39.1053	3.02227
39.0906	3.02156
39.0743	3.02089
39.0596	3.02025
39.0445	3.01964
39.0293	3.01909
39.0141	3.01859
38.9992	3.01816
38.9828	3.01778
38.9677	3.01756
38.9535	3.01745
38.9393	3.01748
38.9266	3.01765
38.9125	3.01789
38.9001	3.01823
38.888	3.01862
38.8748	3.01905
38.8607	3.01949
38.8476	3.01993
38.8332	3.02037
38.8191	3.02077
38.8071	3.02118
38.7936	3.02155
38.7802	3.0219
38.7685	3.02222
38.7555	3.0225
38.7417	3.02277
38.7293	3.02301
38.7184	3.02323
38.7069	3.02343
38.6963	3.02362
38.6861	3.02378
38.6767	3.02401
38.668	3.02417
38.6604	3.02432
38.6521	3.02442
38.6441	3.02451
38.6359	3.02463
38.6279	3.02472
38.621	3.02484
38.6151	3.02496
38.6081	3.02507
38.6014	3.02516
38.5953	3.02523
38.5884	3.02528
38.5823	3.0253
38.5745	3.02532
38.5675	3.02529
38.5595	3.02522
38.5516	3.02511
38.5428	3.02495
38.5352	3.02475
38.5261	3.02449
38.5163	3.02417
38.5079	3.02382
38.4986	3.02343
38.4892	3.02302
38.4788	3.02284
38.47	3.0224
38.4608	3.02192
38.4514	3.02142
38.4422	3.02085
38.4324	3.02034
38.4227	3.01988
38.4137	3.0195
38.4031	3.01923
38.3951	3.01904
38.3854	3.01897
38.3756	3.01897
38.3665	3.01905
38.3582	3.01919
38.3493	3.01936
38.3412	3.01955
38.3341	3.01975
38.3259	3.01995
38.3192	3.02016
38.3119	3.02036
38.3051	3.02055
38.2975	3.0207
38.2893	3.02084
38.281	3.02094
38.2718	3.02102
38.2617	3.02095
38.2534	3.02097
38.2427	3.02098
38.2303	3.02097
38.2192	3.02088
38.2071	3.0209
38.1959	3.02086
38.1823	3.02085
38.1689	3.02085
38.1564	3.0209
38.1446	3.021
38.1311	3.02113
38.1191	3.0213
38.1072	3.02152
38.0933	3.02177
38.0816	3.02208
38.0705	3.02237
38.0571	3.0227
38.046	3.02301
38.0368	3.02331
38.0261	3.02359
38.0143	3.02385
38.003	3.02408
37.9911	3.02428
37.9785	3.02444
37.9663	3.02455
37.9541	3.02461
37.9405	3.02458
37.9273	3.02444
37.9133	3.02415
37.9007	3.02374
37.8877	3.02316
37.8743	3.0226
37.8608	3.02203
37.8466	3.02145
37.8342	3.0209
37.8206	3.02038
37.8085	3.01988
37.7962	3.01943
37.785	3.01899
37.7739	3.01858
37.764	3.01822
37.755	3.01792
37.7454	3.01768
37.7359	3.0175
37.7287	3.01737
37.7206	3.01731
37.7104	3.0173
37.6998	3.01733
37.6886	3.01741
37.6775	3.01751
37.664	3.01762
37.6505	3.01772
37.6365	3.01784
37.6216	3.01795
37.6072	3.01804
37.5927	3.01817
37.5775	3.01823
37.564	3.01831
37.5486	3.01839
37.5355	3.01853
37.5219	3.01869
37.5092	3.01887
37.4961	3.01907
37.4843	3.01928
37.4716	3.01951
37.4596	3.01975
37.4493	3.02001
37.4386	3.02027
37.4291	3.02055
37.4203	3.02084
37.4116	3.02115
37.4031	3.02148
37.3938	3.02183
37.3855	3.0222
37.3774	3.02259
37.3679	3.02298
37.3601	3.02338
37.3535	3.02377
37.346	3.02422
37.3384	3.02458
37.3311	3.02487
37.3231	3.02508
37.3157	3.0252
37.308	3.02526
37.2998	3.02517
37.292	3.02504
37.2833	3.02485
37.275	3.02461
37.2664	3.02435
37.2583	3.02406
37.2502	3.02378
37.2426	3.02351
37.234	3.02323
37.2253	3.02296
37.2169	3.02269
37.2083	3.02244
37.1986	3.02218
37.1889	3.02193
37.1794	3.02167
37.1692	3.02142
37.1576	3.02119
37.1475	3.02099
37.1369	3.0208
37.1269	3.02063
37.1161	3.02041
37.1056	3.02029
37.0946	3.02044
37.0836	3.02032
37.0722	3.0202
37.0588	3.02008
37.0465	3.02003
37.0331	3.01996
37.0191	3.01988
37.0038	3.0198
36.9897	3.01968
36.9746	3.01959
36.9588	3.01949
36.9448	3.01939
36.9303	3.0193
36.9151	3.01921
36.901	3.01914
36.8872	3.01909
36.8749	3.01905
36.8617	3.01903
36.85	3.01903
36.8391	3.01903
36.8278	3.01903
36.8182	3.01905
36.809	3.01907
36.8003	3.01909
36.7917	3.01922
36.7832	3.01926
36.7745	3.01928
36.766	3.0193
36.7568	3.0193
36.748	3.01931
36.7383	3.01935
36.73	3.01942
36.7204	3.01956
36.7116	3.01974
36.7027	3.01996
36.6936	3.02021
36.6852	3.02048
36.6769	3.02076
36.6693	3.02105
36.6614	3.02134
36.6551	3.02161
36.6511	3.02187
36.6467	3.02209
36.6421	3.02229
36.6401	3.02247
36.6379	3.02262
36.6347	3.02276
36.6324	3.02287
36.629	3.02297
36.6284	3.02302
36.6294	3.02309
36.6301	3.02313
36.6311	3.02315
36.6325	3.02311
36.6348	3.02305
36.6379	3.02297
36.6418	3.02288
36.6475	3.02278
36.6537	3.02266
36.6599	3.02253
36.6677	3.02238
36.6768	3.02225
36.6863	3.02208
36.6981	3.02191
36.7107	3.0217
36.7253	3.02147
36.7401	3.0212
36.7574	3.02091
36.7759	3.02058
36.7974	3.02024
36.8186	3.0199
36.8413	3.01957
36.8618	3.01925
36.8833	3.01896
36.9095	3.0187
36.9375	3.01846
36.9678	3.01823
37.0011	3.018
37.0367	3.01784
37.0734	3.01765
37.1117	3.01746
37.1521	3.01727
37.194	3.01708
37.2356	3.0169
37.279	3.01671
37.3232	3.01653
37.3688	3.01633
37.4126	3.01616
37.4566	3.01598
37.5062	3.01582
37.5584	3.01568
37.6111	3.01555
37.668	3.01547
37.7264	3.01544
37.787	3.01547
37.8463	3.01557
37.9066	3.01586
37.9688	3.01609
38.0365	3.01641
38.106	3.01677
38.1773	3.01691
38.2498	3.01739
38.3209	3.01787
38.3931	3.01836
38.4687	3.01877
38.5429	3.01917
38.6146	3.01956
38.6908	3.01992
38.7676	3.02027
38.8423	3.02058
38.9189	3.02087
38.9973	3.02115
39.0782	3.0214
39.1565	3.02165
39.2364	3.02187
39.3179	3.02206
39.3961	3.02224
39.4762	3.02238
39.56	3.0225
39.6404	3.02261
39.7229	3.02272
39.8092	3.02281
39.8927	3.02289
39.9804	3.02296
40.0685	3.02301
40.1582	3.02305
40.2479	3.02307
40.339	3.02307
40.4285	3.02305
40.5183	3.02299
40.6113	3.02288
40.7047	3.02269
40.7989	3.02243
40.8929	3.02208
40.9848	3.02167
41.0758	3.02119
41.1695	3.02065
41.2645	3.02007
41.3576	3.01951
41.4482	3.01897
41.5408	3.01849
41.6363	3.0181
41.7278	3.01781
41.8222	3.01772
41.9179	3.01764
42.0106	3.01767
42.1034	3.01778
42.2018	3.01797
42.2985	3.01818
42.3945	3.01842
42.4909	3.01866
42.5868	3.01891
42.683	3.01915
42.7793	3.01938
42.8723	3.01961
42.9659	3.01982
43.0597	3.02002
43.1579	3.0202
43.2575	3.02037
43.3576	3.02051
43.4548	3.02063
43.5512	3.02072
43.6514	3.0208
43.7525	3.02085
43.8488	3.02088
43.9448	3.02089
44.04	3.02088
44.1356	3.02086
44.2299	3.02082
44.323	3.02077
44.4198	3.02069
44.516	3.0206
44.6115	3.0205
44.7027	3.02047
44.7932	3.02037
44.8836	3.02027
44.9731	3.02019
45.065	3.02013
45.1561	3.02004
45.2448	3.01997
45.3359	3.0199
45.4293	3.01985
45.5197	3.01981
45.6102	3.01977
45.7037	3.01973
45.7961	3.01969
45.8871	3.01966
45.9765	3.01964
46.0688	3.01962
46.1604	3.01959
46.25	3.01958
46.3418	3.01959
46.4339	3.01961
46.5237	3.01963
46.6166	3.01964
46.7084	3.01963
46.7987	3.0195
46.8917	3.01946
46.9841	3.0194
47.0739	3.01931
47.1638	3.0192
47.2535	3.01909
47.3434	3.01899
47.4361	3.0189
47.5288	3.01883
47.6195	3.01876
47.7094	3.01851
47.7995	3.01849
47.8896	3.01844
47.9825	3.01842
48.077	3.01841
48.1698	3.01844
48.2617	3.01847
48.3537	3.01851
48.4493	3.01856
48.5433	3.01862
48.635	3.01869
48.7326	3.01876
48.8282	3.01884
48.9221	3.01892
49.0202	3.01902
49.1194	3.01912
49.2165	3.01924
49.3152	3.01937
49.4119	3.01954
49.5078	3.01972
49.6041	3.01992
49.6996	3.02015
49.7948	3.02038
49.8938	3.02062
49.9926	3.02086
50.091	3.02111
50.1858	3.02136
50.279	3.02161
50.3709	3.02186
50.4664	3.02209
50.5622	3.0223
50.6588	3.0225
50.7554	3.02269
50.8531	3.02271
50.9515	3.02266
51.0511	3.02253
51.1493	3.0223
51.2486	3.02191
51.3488	3.02153
51.4489	3.02105
51.5493	3.02049
51.6508	3.01987
51.7518	3.01923
51.8535	3.01857
51.9565	3.0179
52.0575	3.01724
52.1601	3.01659
52.2666	3.01596
52.372	3.01535
52.4771	3.01478
52.5828	3.01427
52.689	3.01384
52.7964	3.01353
52.9038	3.01335
53.0123	3.01329
53.1219	3.01336
53.2311	3.01354
53.3414	3.01384
53.4524	3.01425
53.5634	3.01474
53.6766	3.01529
53.791	3.01585
53.9053	3.01643
54.0217	3.017
54.1382	3.01754
54.2552	3.01808
54.3707	3.0186
54.4847	3.01901
54.5996	3.01952
54.7154	3.01996
54.8324	3.02034
54.9506	3.02063
55.0692	3.02091
55.1878	3.02112
55.3079	3.02128
55.4292	3.02139
55.5502	3.02146
55.6719	3.02149
55.7939	3.02149
55.9151	3.02147
56.0362	3.02143
56.1572	3.02136
56.2795	3.02125
56.4014	3.02113
56.5238	3.02095
56.6474	3.02075
56.7686	3.0205
56.8894	3.02019
57.0105	3.01984
57.1317	3.01942
57.2532	3.01896
57.3743	3.01846
57.4964	3.01794
57.6184	3.01744
57.7411	3.01681
57.8632	3.01647
57.9856	3.01619
58.108	3.01602
58.2296	3.01595
58.3521	3.01598
58.4748	3.0163
58.5982	3.01645
58.7231	3.01664
58.8491	3.01681
58.9746	3.01699
59.1015	3.01715
59.2278	3.01731
59.3548	3.01748
59.4821	3.01765
59.6086	3.01782
59.7355	3.01799
59.8623	3.01814
59.9892	3.01828
60.1166	3.01839
60.2445	3.01846
60.3737	3.01848
60.5032	3.01847
60.6334	3.01843
60.7648	3.01833
60.8951	3.01821
61.0288	3.01805
61.1616	3.01787
61.2916	3.01767
61.4241	3.01742
61.5563	3.01714
61.6894	3.01683
61.8227	3.01666
61.9561	3.0163
62.0903	3.01595
62.2244	3.01563
62.3588	3.01534
62.4951	3.01509
62.6304	3.0148
62.767	3.01464
62.9037	3.01448
63.0396	3.01433
63.1757	3.01419
63.3122	3.01409
63.4476	3.01405
63.5839	3.01412
63.7192	3.01427
63.8561	3.01454
63.9936	3.01489
64.1313	3.01534
64.2689	3.01586
64.4047	3.01643
64.5392	3.01703
64.6741	3.01761
64.8091	3.01818
64.942	3.01869
65.0743	3.01916
65.2057	3.01954
65.3373	3.0198
65.4686	3.01996
65.6007	3.01998
65.7333	3.0199
65.8646	3.01969
65.9968	3.01938
66.1289	3.01899
66.2612	3.01851
66.3928	3.01803
66.5236	3.01759
66.655	3.01719
66.785	3.01686
66.9132	3.01659
67.0396	3.01636
67.1674	3.01617
67.2959	3.01601
67.4249	3.01584
67.5539	3.01572
67.6841	3.01564
67.8136	3.01558
67.9442	3.01554
68.0752	3.01553
68.2053	3.01553
68.3349	3.01555
68.464	3.01557
68.5937	3.01561
68.7241	3.01565
68.855	3.0157
68.985	3.01575
69.1153	3.0158
69.2451	3.01587
69.3751	3.01593
69.5053	3.016
69.6349	3.01606
69.7652	3.01611
69.8951	3.01617
70.0244	3.01593
70.1525	3.01598
70.2786	3.01601
70.4046	3.01605
70.5303	3.01607
70.6546	3.01605
70.7792	3.01621
70.9041	3.01613
71.0276	3.01605
71.1518	3.01592
71.2748	3.01578
71.3987	3.01563
71.5226	3.01545
71.647	3.01529
71.7703	3.01517
71.8941	3.01509
72.0162	3.015
72.137	3.0149
72.2546	3.01478
72.3735	3.01463
72.4913	3.01449
72.6093	3.0143
72.7265	3.01412
72.8428	3.01396
72.959	3.01382
73.0727	3.01372
73.1879	3.01365
73.3037	3.01363
73.4201	3.01364
73.5371	3.01369
73.6551	3.01378
73.7722	3.01386
73.8918	3.01405
74.012	3.01427
74.1311	3.01454
74.2525	3.01486
74.3756	3.01522
74.5001	3.01563
74.6264	3.01587
74.7534	3.0163
74.8812	3.01668
75.0094	3.01703
75.138	3.01732
75.2695	3.01755
75.4002	3.01774
75.5321	3.0179
75.6641	3.018
75.7964	3.01808
75.9305	3.0181
76.0633	3.01804
76.1967	3.0179
76.3324	3.01766
76.4698	3.01735
76.6052	3.01694
76.7394	3.01646
76.8735	3.01593
77.0065	3.01535
77.1377	3.01476
77.2684	3.01415
77.3975	3.01357
77.5261	3.013
77.6537	3.01247
77.7848	3.01202
77.9161	3.01166
78.0463	3.01141
78.1778	3.01128
78.3072	3.01126
78.4379	3.01132
78.5703	3.0115
78.7002	3.01174
78.8302	3.01205
78.9603	3.01239
79.0906	3.01272
79.2199	3.013
79.349	3.01322
79.477	3.01337
79.6059	3.01347
79.7362	3.01352
79.8653	3.01351
79.9934	3.01344
80.121	3.01332
80.2482	3.01316
80.3741	3.01298
80.5011	3.01278
80.6271	3.01256
80.7538	3.01234
80.8797	3.01212
81.0049	3.01189
81.1292	3.01167
81.254	3.01146
81.3778	3.01123
81.5029	3.0111
81.629	3.01091
81.7561	3.01074
81.8816	3.01061
82.0081	3.01054
82.1351	3.01056
82.2632	3.01065
82.3911	3.01083
82.519	3.01107
82.6501	3.01166
82.7787	3.012
82.9088	3.01239
83.0379	3.01282
83.1669	3.01324
83.2949	3.01368
83.4228	3.01406
83.549	3.01439
83.6745	3.01465
83.801	3.01487
83.9258	3.01502
84.05	3.0151
84.1725	3.01514
84.2957	3.01512
84.4184	3.01506
84.5421	3.01499
84.665	3.01495
84.788	3.01492
84.9106	3.01491
85.0345	3.01493
85.1589	3.01494
85.2828	3.01498
85.4086	3.01504
85.5324	3.01506
85.6592	3.01505
85.7863	3.01495
85.9128	3.01486
86.0399	3.01476
86.1686	3.01466
86.2981	3.01452
86.4278	3.01437
86.5591	3.01422
86.6919	3.014
86.826	3.01373
86.9617	3.01346
87.0982	3.01314
87.2353	3.01278
87.37	3.0124
87.5046	3.01199
87.6393	3.01158
87.7733	3.01118
87.909	3.01078
88.044	3.01042
88.176	3.01006
88.3094	3.00975
88.4413	3.00945
88.5726	3.00918
88.7039	3.00894
88.8353	3.00877
88.9669	3.00874
89.0989	3.0088
89.2315	3.00899
89.3641	3.00934
89.4968	3.00983
89.6303	3.01043
89.7643	3.01115
89.8993	3.01187
90.0352	3.01257
90.1705	3.01329
90.3067	3.014
90.4428	3.01469
90.5793	3.01535
90.7154	3.01591
90.8502	3.01634
90.9838	3.01662
91.1184	3.01675
91.2525	3.01673
91.3859	3.01658
91.5208	3.01629
91.6557	3.0159
91.79	3.01541
91.925	3.01486
92.0568	3.01428
92.1874	3.01366
92.3181	3.01302
92.4464	3.01239
92.5752	3.01177
92.7019	3.01116
92.8282	3.01058
92.9529	3.01004
93.0783	3.00952
93.2038	3.0091
93.3292	3.00871
93.4531	3.0086
93.5751	3.00863
93.6979	3.00883
93.8199	3.00917
93.9416	3.00964
94.061	3.01018
94.1809	3.01074
94.2982	3.01133
94.4158	3.01182
94.5317	3.01239
94.6473	3.01291
94.7611	3.01339
94.8736	3.01381
94.9867	3.01414
95.0975	3.01438
95.2091	3.01453
95.3178	3.0146
95.4275	3.01459
95.5355	3.0145
95.642	3.01434
95.7471	3.01411
95.8489	3.01383
95.9501	3.01348
96.0503	3.01309
96.1486	3.01262
96.2472	3.01211
96.344	3.01153
96.4418	3.0109
96.5392	3.01025
96.6366	3.00979
96.7334	3.00912
96.8288	3.00853
96.9249	3.00806
97.0219	3.00768
97.1183	3.00742
97.2164	3.00729
97.3166	3.00727
97.419	3.00733
97.5216	3.00747
97.6256	3.00762
97.7293	3.00783
97.8347	3.00809
97.9409	3.00844
98.0474	3.00877
98.1535	3.00908
98.26	3.00936
98.3683	3.0096
98.4767	3.00978
98.5844	3.0099
98.6917	3.00996
98.7988	3.00999
98.9052	3.00996
99.0133	3.00993
99.1231	3.0099
99.2342	3.00989
99.3467	3.00993
99.4614	3.00998
99.5752	3.01007
99.6894	3.01018
99.804	3.01029
99.918	3.01044
100.034	3.01056
100.149	3.01071
100.263	3.01087
100.381	3.01108
100.503	3.01126
100.622	3.01133
100.742	3.01131
100.862	3.01117
100.983	3.01087
101.105	3.01043
101.227	3.00987
101.35	3.00921
101.472	3.0086
101.595	3.00802
101.72	3.00749
101.847	3.007
101.973	3.00658
102.099	3.00625
102.225	3.006
102.352	3.00586
102.478	3.00582
102.605	3.00587
102.733	3.00599
102.86	3.00619
102.988	3.00644
103.116	3.00672
103.244	3.00703
103.371	3.00738
103.499	3.00787
103.627	3.00824
103.756	3.00865
103.884	3.00909
104.012	3.00957
104.143	3.01008
104.273	3.01065
104.404	3.01123
104.536	3.01181
104.668	3.01233
104.802	3.01286
104.934	3.01311
105.067	3.01322
105.198	3.01318
105.329	3.01298
105.458	3.01266
105.587	3.01226
105.716	3.01182
105.843	3.01135
105.97	3.01089
106.096	3.0104
106.222	3.00994
106.346	3.00946
106.468	3.00899
106.59	3.00854
106.711	3.00809
106.832	3.00764
106.95	3.00721
107.068	3.0068
107.186	3.00639
107.302	3.00604
107.417	3.00569
107.53	3.00544
107.643	3.00532
107.755	3.00533
107.867	3.00554
107.98	3.00584
108.093	3.00628
108.204	3.00683
108.314	3.00745
108.423	3.0079
108.531	3.00853
108.639	3.00907
108.746	3.00946
108.854	3.00972
108.962	3.00984
109.071	3.00983
109.179	3.00967
109.288	3.00941
109.396	3.0091
109.503	3.00875
109.609	3.0084
109.718	3.00804
109.827	3.00768
109.938	3.00734
110.047	3.00701
110.156	3.00675
110.267	3.00654
110.377	3.00639
110.487	3.0063
110.599	3.00626
110.71	3.00655
110.82	3.00657
110.931	3.00666
111.043	3.00676
111.157	3.0069
111.271	3.00704
111.385	3.00719
111.498	3.00735
111.612	3.00749
111.727	3.00765
111.841	3.00776
111.955	3.00789
112.07	3.00798
112.184	3.00804
112.299	3.00803
112.414	3.00801
112.528	3.00795
112.643	3.00786
112.758	3.00775
112.872	3.0076
112.988	3.00744
113.104	3.00723
113.22	3.00698
113.336	3.00671
113.453	3.00647
113.572	3.00626
113.692	3.00611
113.81	3.006
113.928	3.00595
114.047	3.00595
114.167	3.00601
114.29	3.0061
114.414	3.00621
114.535	3.0063
114.657	3.00639
114.78	3.00656
114.905	3.00673
115.031	3.0069
115.159	3.00707
115.287	3.00707
115.417	3.0072
115.552	3.00725
115.683	3.00722
115.814	3.0071
115.948	3.00688
116.082	3.00655
116.215	3.00614
116.352	3.00566
116.486	3.00515
116.623	3.00461
116.762	3.00405
116.9	3.00348
117.037	3.00292
117.172	3.00237
117.307	3.00184
117.441	3.00134
117.576	3.00088
117.71	3.00049
117.844	3.00019
117.978	3.00003
118.111	2.99998
118.245	2.99989
118.379	3.00007
118.512	3.00038
118.646	3.00084
118.78	3.00143
118.913	3.0021
119.046	3.00283
119.179	3.0036
119.315	3.00435
119.45	3.00512
119.582	3.0058
119.714	3.0064
119.846	3.00683
119.977	3.00705
120.109	3.00714
120.24	3.00705
120.37	3.0068
120.499	3.00644
120.626	3.00599
120.753	3.00549
120.88	3.00495
121.009	3.0044
121.139	3.00383
121.269	3.00326
121.399	3.00266
121.528	3.0021
121.657	3.00153
121.785	3.00096
121.912	3.0004
122.039	2.99984
122.165	2.99928
122.292	2.99881
122.42	2.99838
122.547	2.99806
122.676	2.99783
122.806	2.99773
122.937	2.99773
123.069	2.99785
123.202	2.99804
123.332	2.99797
123.462	2.99825
123.597	2.9985
123.733	2.99874
123.87	2.99897
124.007	2.99919
124.141	2.99941
124.276	2.99962
124.414	2.99985
124.55	3.00007
124.687	3.0003
124.822	3.00051
124.956	3.00069
125.088	3.00084
125.222	3.00097
125.353	3.00105
125.483	3.00112
125.616	3.00116
125.75	3.00119
125.885	3.00122
126.019	3.00122
126.155	3.00121
126.289	3.00118
126.424	3.0011
126.558	3.00093
126.688	3.00067
126.819	3.00031
126.951	2.99993
127.084	2.9994
127.221	2.99881
127.357	2.99816
127.494	2.99748
127.631	2.99683
127.768	2.99627
127.905	2.99578
128.04	2.99528
128.174	2.99488
128.307	2.99454
128.441	2.99428
128.574	2.99411
128.708	2.99402
128.843	2.99401
128.978	2.9941
129.114	2.99425
129.247	2.99448
129.381	2.99476
129.517	2.9951
129.653	2.99549
129.788	2.99588
129.923	2.99635
130.058	2.99683
130.193	2.99732
130.33	2.99779
130.47	2.9983
130.61	2.99873
130.752	2.99913
130.894	2.99952
131.037	2.99983
131.179	3.0001
131.32	3.00026
131.463	3.0003
131.607	3.0004
131.751	3.00023
131.898	2.99992
132.046	2.99946
132.195	2.99887
132.344	2.99818
132.494	2.99742
132.643	2.99662
132.792	2.99579
132.94	2.99496
133.084	2.99411
133.225	2.99327
133.364	2.99246
133.502	2.9917
133.639	2.991
133.776	2.99038
133.913	2.98988
134.05	2.9895
134.186	2.98922
134.323	2.98912
134.46	2.98918
134.596	2.98938
134.732	2.98976
134.868	2.99024
135.003	2.99083
135.14	2.99151
135.278	2.99225
135.415	2.99302
135.553	2.99384
135.691	2.99464
135.829	2.99543
135.967	2.9961
136.105	2.99666
136.243	2.99705
136.383	2.99726
136.521	2.99727
136.662	2.9971
136.802	2.99677
136.943	2.99631
137.085	2.99579
137.228	2.9952
137.373	2.99458
137.516	2.99391
137.66	2.99321
137.804	2.99248
137.946	2.99173
138.088	2.99096
138.231	2.99019
138.375	2.98943
138.52	2.98867
138.665	2.98795
138.812	2.9873
138.959	2.98672
139.106	2.98627
139.251	2.98595
139.395	2.98578
139.538	2.98576
139.681	2.98587
139.825	2.98614
139.969	2.98652
140.114	2.987
140.258	2.98756
140.405	2.98815
140.552	2.98875
140.697	2.98935
140.844	2.98993
140.991	2.99045
141.134	2.99101
141.278	2.99154
141.421	2.99202
141.562	2.99244
141.704	2.99273
141.845	2.99291
141.985	2.99295
142.124	2.99288
142.261	2.9927
142.397	2.99241
142.531	2.99205
142.664	2.99159
142.796	2.99107
142.927	2.99049
143.055	2.98986
143.185	2.9892
143.315	2.9885
143.445	2.98777
143.577	2.98704
143.711	2.98631
143.847	2.98563
143.984	2.98493
144.123	2.98426
144.263	2.98362
144.404	2.98303
144.546	2.98243
144.687	2.98194
144.828	2.98149
144.972	2.98105
145.115	2.98067
145.258	2.98026
145.403	2.97987
145.547	2.97951
145.69	2.97919
145.834	2.97895
145.977	2.97877
146.12	2.97869
146.264	2.9787
146.406	2.97881
146.548	2.97901
146.689	2.97928
146.829	2.97965
146.968	2.98006
147.108	2.98049
147.247	2.98094
147.388	2.9814
147.529	2.98185
147.67	2.98232
147.812	2.98277
147.954	2.98318
148.096	2.98351
148.236	2.98378
148.378	2.98394
148.52	2.98399
148.664	2.9839
148.808	2.98364
148.951	2.98327
149.095	2.98278
149.239	2.98218
149.383	2.98152
149.528	2.98079
149.673	2.97999
149.82	2.97916
149.966	2.97827
150.113	2.97736
150.257	2.97645
150.4	2.97555
150.544	2.97468
150.688	2.97383
150.83	2.97301
150.973	2.97221
151.115	2.97144
151.257	2.97069
151.398	2.96997
151.539	2.96929
151.68	2.96867
151.823	2.96811
151.964	2.96753
152.106	2.9671
152.246	2.9667
152.386	2.96637
152.529	2.96605
152.672	2.96584
152.816	2.96566
152.963	2.9655
153.11	2.96534
153.26	2.96511
153.41	2.96481
153.563	2.96441
153.718	2.96392
153.873	2.96333
154.028	2.96263
154.184	2.96185
154.341	2.96099
154.498	2.96008
154.654	2.95915
154.81	2.95821
154.963	2.95727
155.115	2.9563
155.266	2.95532
155.415	2.95433
155.565	2.95334
155.713	2.95233
155.861	2.95134
156.009	2.95038
156.158	2.94945
156.306	2.94855
156.454	2.9477
156.603	2.94684
156.751	2.94604
156.898	2.94529
157.044	2.94458
157.19	2.94392
157.336	2.94333
157.483	2.94279
157.629	2.94231
157.774	2.94189
157.92	2.94153
158.065	2.94118
158.209	2.94086
158.353	2.94056
158.496	2.94024
158.639	2.93992
158.782	2.9396
158.925	2.93927
159.069	2.93892
159.213	2.93856
159.356	2.93817
159.5	2.93776
159.641	2.93733
159.781	2.93688
159.922	2.93639
160.064	2.93587
160.205	2.93529
160.35	2.93464
160.493	2.93391
160.634	2.93307
160.775	2.93213
160.917	2.9311
161.058	2.92997
161.2	2.92876
161.343	2.92747
161.484	2.92614
161.626	2.92476
161.769	2.92337
161.911	2.92194
162.054	2.92048
162.197	2.91895
162.341	2.91738
162.485	2.91576
162.628	2.91408
162.771	2.91236
162.917	2.91058
163.061	2.90878
163.206	2.90696
163.352	2.90513
163.498	2.90332
163.643	2.90153
163.79	2.89976
163.934	2.898
164.079	2.89627
164.223	2.89457
164.367	2.8929
164.509	2.89127
164.65	2.88966
164.791	2.88809
164.932	2.88654
165.072	2.88501
165.213	2.88349
165.353	2.882
165.493	2.88053
165.633	2.87908
165.775	2.87766
165.915	2.87625
166.056	2.87484
166.199	2.87341
166.34	2.87196
166.481	2.87055
166.623	2.86901
166.764	2.86742
166.904	2.86575
167.044	2.86403
167.183	2.86219
167.319	2.86029
167.456	2.85833
167.594	2.85631
167.733	2.85424
167.872	2.85213
168.011	2.84998
168.15	2.84779
168.29	2.84557
168.43	2.84331
168.57	2.84104
168.711	2.83872
168.851	2.83637
168.992	2.83402
169.133	2.83168
169.275	2.82935
169.416	2.82705
169.556	2.82483
169.696	2.82261
169.836	2.82046
169.977	2.81839
170.118	2.8164
170.26	2.81446
170.403	2.81258
170.545	2.81073
170.689	2.8089
170.834	2.80712
170.975	2.80532
171.121	2.80348
171.267	2.80162
171.414	2.79971
171.56	2.79776
171.708	2.79574
171.856	2.79367
172.001	2.79154
172.146	2.78934
172.29	2.78705
172.434	2.7847
172.578	2.78227
172.721	2.77977
172.864	2.7772
173.003	2.77454
173.144	2.77182
173.283	2.76903
173.422	2.76617
173.561	2.76325
173.7	2.76026
173.839	2.75722
173.978	2.75421
174.117	2.75106
174.256	2.74789
174.395	2.74467
174.535	2.74141
174.675	2.7381
174.815	2.73476
174.956	2.73138
175.096	2.72794
175.236	2.72446
175.377	2.72092
175.516	2.71732
175.656	2.71366
175.796	2.70997
175.936	2.7062
176.075	2.70238
176.214	2.6985
176.354	2.69458
176.493	2.69059
176.633	2.68655
176.772	2.68246
176.913	2.6783
177.055	2.67408
177.197	2.66979
177.34	2.66543
177.483	2.66099
177.627	2.65645
177.773	2.65184
177.92	2.64712
178.068	2.64232
178.215	2.63743
178.362	2.63243
178.509	2.62739
178.655	2.62234
178.8	2.61727
178.945	2.61223
179.089	2.6072
179.233	2.6022
179.375	2.5972
179.517	2.5922
179.658	2.58719
179.8	2.58217
179.941	2.57711
180.083	2.57201
180.226	2.56689
180.369	2.56174
180.51	2.55658
180.653	2.55141
180.797	2.54625
180.941	2.54112
181.086	2.53601
181.231	2.53095
181.375	2.52592
181.517	2.52093
181.66	2.51598
181.8	2.51107
181.941	2.50619
182.081	2.50135
182.222	2.49652
182.362	2.49169
182.504	2.48687
182.649	2.48204
182.796	2.47717
182.943	2.47233
183.092	2.46748
183.241	2.46262
183.393	2.45777
183.546	2.4529
183.702	2.448
183.858	2.443
184.015	2.438
184.171	2.43289
184.325	2.42769
184.476	2.42238
184.626	2.41698
184.776	2.4115
184.925	2.40594
185.075	2.40032
185.223	2.39464
185.372	2.38891
185.521	2.38313
185.672	2.37731
185.822	2.37146
185.973	2.36555
186.125	2.35962
186.274	2.35364
186.426	2.34762
186.577	2.34154
186.727	2.3354
186.878	2.3292
187.029	2.32293
187.18	2.31658
187.331	2.31017
187.481	2.30371
187.63	2.29722
187.778	2.29069
187.926	2.28412
188.073	2.27751
188.22	2.27084
188.366	2.26412
188.512	2.25724
188.658	2.25036
188.803	2.24336
188.948	2.23627
189.092	2.22906
189.235	2.22175
189.379	2.21434
189.523	2.20681
189.666	2.19919
189.81	2.19147
189.951	2.18365
190.089	2.17573
190.224	2.16772
190.359	2.15962
190.494	2.15146
190.63	2.14325
190.767	2.13504
190.903	2.12684
191.04	2.11868
191.176	2.11058
191.312	2.10255
191.45	2.0946
191.586	2.08672
191.721	2.07899
191.855	2.07135
191.987	2.06382
192.118	2.05641
192.251	2.04919
192.383	2.04218
192.517	2.0354
192.65	2.02884
192.784	2.0225
192.918	2.01634
193.052	2.01029
193.185	2.00435
193.318	1.99839
193.448	1.99245
193.58	1.9865
193.715	1.98056
193.851	1.9746
193.989	1.96862
194.126	1.9626
194.264	1.95654
194.403	1.95043
194.544	1.94425
194.686	1.93803
194.83	1.93173
194.977	1.92535
195.126	1.91887
195.277	1.91225
195.427	1.9055
195.578	1.89861
195.728	1.89156
195.88	1.88436
196.03	1.877
196.181	1.86951
196.329	1.86189
196.476	1.85417
196.621	1.84638
196.765	1.83851
196.908	1.83058
197.05	1.82257
197.191	1.81451
197.331	1.8064
197.47	1.79821
197.608	1.78995
197.746	1.78162
197.885	1.7732
198.023	1.76474
198.161	1.75625
198.299	1.74775
198.437	1.73928
198.575	1.73083
198.713	1.72244
198.85	1.7141
198.985	1.70584
199.122	1.69764
199.259	1.6895
199.396	1.68143
199.534	1.67339
199.674	1.66541
199.814	1.65747
199.955	1.64958
200.097	1.64172
200.241	1.6339
200.386	1.62612
200.536	1.6184
200.691	1.61075
200.846	1.6032
201.002	1.59575
201.158	1.58843
201.313	1.58123
201.469	1.57415
201.624	1.56715
201.779	1.56023
201.935	1.55338
202.089	1.54659
202.245	1.53987
202.399	1.53323
202.555	1.52667
202.711	1.5202
202.868	1.51383
203.024	1.50757
203.179	1.50142
203.334	1.49538
203.489	1.48946
203.641	1.48365
203.792	1.47796
203.943	1.47239
204.095	1.46694
204.246	1.46162
204.397	1.45643
204.548	1.45137
204.696	1.44644
204.842	1.4416
204.985	1.43687
205.128	1.43223
205.266	1.42762
205.403	1.42303
205.541	1.41843
205.675	1.41381
205.809	1.40916
205.943	1.40449
206.077	1.39971
206.212	1.39486
206.346	1.3899
206.48	1.38481
206.614	1.3795
206.747	1.37396
206.881	1.36818
207.016	1.36212
207.151	1.35579
207.288	1.3492
207.427	1.34238
207.566	1.33535
207.706	1.32817
207.844	1.32084
207.985	1.31338
208.125	1.3058
208.266	1.29811
208.407	1.29032
208.547	1.28246
208.685	1.27455
208.823	1.26658
208.962	1.25858
209.1	1.25059
209.238	1.24259
209.377	1.23459
209.515	1.22663
209.654	1.21877
209.795	1.21099
209.933	1.20335
210.071	1.19586
210.21	1.18855
210.348	1.18143
210.484	1.17444
210.62	1.1676
210.755	1.16088
210.888	1.15424
211.024	1.14772
211.16	1.14128
211.295	1.13492
211.431	1.12865
211.566	1.12244
211.703	1.11631
211.839	1.11024
211.976	1.10421
212.111	1.09824
212.247	1.09229
212.382	1.08637
212.517	1.08042
212.652	1.07444
212.784	1.06844
212.916	1.06239
213.048	1.05628
213.18	1.0501
213.311	1.04388
213.44	1.0376
213.567	1.03128
213.694	1.02492
213.822	1.01852
213.949	1.01212
214.079	1.00569
214.21	0.99928
214.341	0.99286
214.471	0.986486
214.601	0.980128
214.731	0.973784
214.861	0.967442
214.992	0.961119
215.123	0.95478
215.253	0.948461
215.386	0.942174
215.519	0.93593
215.651	0.929732
215.783	0.923599
215.916	0.917554
216.049	0.91156
216.181	0.905634
216.312	0.899765
216.444	0.893961
216.578	0.888202
216.711	0.882489
216.845	0.876812
216.977	0.871177
217.11	0.865578
217.241	0.860007
217.371	0.854447
217.502	0.848906
217.633	0.843368
217.765	0.837828
217.899	0.83227
218.031	0.826624
218.164	0.821026
218.297	0.815419
218.431	0.809802
218.565	0.804178
218.701	0.798572
218.837	0.79296
218.972	0.787343
219.107	0.781672
219.24	0.77594
219.376	0.770118
219.509	0.764207
219.642	0.758235
219.777	0.752207
219.911	0.746135
220.046	0.739975
220.182	0.733844
220.319	0.727712
220.457	0.721618
220.596	0.715574
220.734	0.709611
220.874	0.703728
221.01	0.697943
221.147	0.692277
221.283	0.686736
221.418	0.681354
221.55	0.676107
221.682	0.67101
221.813	0.666061
221.945	0.661242
222.078	0.656558
222.208	0.651993
222.338	0.647555
222.467	0.643189
222.597	0.638916
222.729	0.634763
222.861	0.630716
222.99	0.626819
223.118	0.62304
223.247	0.619356
223.38	0.615729
223.515	0.612122
223.652	0.608536
223.789	0.604956
223.928	0.601377
224.069	0.59777
224.209	0.594145
224.349	0.590504
224.49	0.586835
224.632	0.58316
224.775	0.579476
224.916	0.575802
225.058	0.572106
225.201	0.568423
225.345	0.564756
225.486	0.561117
225.627	0.557463
225.769	0.55381
225.91	0.550189
226.05	0.546595
226.188	0.543028
226.327	0.539509
226.466	0.536043
226.603	0.532636
226.739	0.529294
226.874	0.52596
227.008	0.522736
227.138	0.519583
227.268	0.516482
227.399	0.513442
227.531	0.51046
227.664	0.507509
227.799	0.504604
227.935	0.501688
228.073	0.498775
228.213	0.495861
228.354	0.492939
228.496	0.489995
228.638	0.487027
228.781	0.484028
228.924	0.480974
229.069	0.477884
229.215	0.474736
229.362	0.471539
229.511	0.468277
229.657	0.46497
229.806	0.461616
229.954	0.45823
230.1	0.454808
230.247	0.451375
230.391	0.447935
230.534	0.444502
230.675	0.441105
230.816	0.437752
230.956	0.434471
231.094	0.431298
231.232	0.428239
231.368	0.425223
231.504	0.422393
231.643	0.419711
231.782	0.417214
231.923	0.414802
232.063	0.412515
232.204	0.410301
232.344	0.408142
232.484	0.406027
232.626	0.403951
232.771	0.401929
232.918	0.399987
233.066	0.398107
233.214	0.396325
233.362	0.394643
233.512	0.393052
233.667	0.391571
233.82	0.390203
233.971	0.388995
234.123	0.38783
234.272	0.386761
234.421	0.385771
234.568	0.384863
234.714	0.383986
234.859	0.38316
235.004	0.382361
235.147	0.381587
235.29	0.380823
235.433	0.380049
235.575	0.379289
235.719	0.378564
235.862	0.377908
236.004	0.377324
236.147	0.376843
236.29	0.376482
236.431	0.376243
236.573	0.376081
236.717	0.375992
236.862	0.375903
237.007	0.375784
237.15	0.375535
237.297	0.375179
237.445	0.374726
237.595	0.374187
237.747	0.373581
237.901	0.372921
238.054	0.372232
238.205	0.371546
238.35	0.370838
238.489	0.370172
238.625	0.36951
238.761	0.368858
238.899	0.368195
239.037	0.367533
239.175	0.366857
239.313	0.366184
239.451	0.365507
239.589	0.364822
239.726	0.364122
239.862	0.36343
239.998	0.362746
240.136	0.362047
240.275	0.36134
240.414	0.360623
240.553	0.359884
240.694	0.359169
240.835	0.358383
240.976	0.357594
241.119	0.356885
241.262	0.356192
241.407	0.355555
241.551	0.355009
241.696	0.354488
241.844	0.35403
241.993	0.353634
242.144	0.35328
242.295	0.35296
242.445	0.352655
242.596	0.352363
242.744	0.352063
242.893	0.351797
243.041	0.351504
243.187	0.351219
243.332	0.350957
243.474	0.350707
243.616	0.350496
243.759	0.350325
243.9	0.350197
244.042	0.350113
244.185	0.350084
244.329	0.350096
244.472	0.350146
244.614	0.35021
244.757	0.350291
244.898	0.350372
245.04	0.350429
245.184	0.350464
245.328	0.350443
245.474	0.350423
245.62	0.350279
245.769	0.350112
245.918	0.349802
246.069	0.349409
246.221	0.348952
246.372	0.348396
246.522	0.347755
246.672	0.347062
246.819	0.346338
246.968	0.345587
247.118	0.344838
247.267	0.344085
247.416	0.343356
247.564	0.342682
247.711	0.342057
247.857	0.341482
248.005	0.341001
248.15	0.340642
248.294	0.34042
248.436	0.340335
248.576	0.340382
248.716	0.340534
248.855	0.340785
248.998	0.341119
249.143	0.341552
249.291	0.342033
249.439	0.342553
249.581	0.343092
249.72	0.343642
249.858	0.344206
249.998	0.344767
250.139	0.345292
250.281	0.34572
250.425	0.346146
250.572	0.346359
250.718	0.346435
250.865	0.346403
251.013	0.346237
251.159	0.345979
251.302	0.34566
251.448	0.345309
251.593	0.344944
251.739	0.344571
251.886	0.344191
252.032	0.343805
252.178	0.343404
252.325	0.342972
252.474	0.342518
252.621	0.342032
252.769	0.341568
252.915	0.341059
253.061	0.340556
253.207	0.340074
253.352	0.339636
253.499	0.339231
253.647	0.338908
253.795	0.338689
253.944	0.33857
254.096	0.338561
254.248	0.338663
254.4	0.33888
254.551	0.339194
254.7	0.339592
254.849	0.340063
254.997	0.340579
255.145	0.341119
255.291	0.341654
255.436	0.342233
255.583	0.342815
255.73	0.343364
255.877	0.343855
256.023	0.344275
256.164	0.344595
256.303	0.344821
256.441	0.344926
256.577	0.344913
256.711	0.344804
256.844	0.344612
256.979	0.344353
257.114	0.344068
257.247	0.343762
257.377	0.343417
257.507	0.343092
257.637	0.342757
257.767	0.342414
257.897	0.342067
258.029	0.34171
258.162	0.341328
258.294	0.340935
258.427	0.340532
258.562	0.340133
258.698	0.33979
258.835	0.339517
258.972	0.33934
259.11	0.339242
259.249	0.339249
259.39	0.339345
259.534	0.339517
259.679	0.339754
259.826	0.339977
259.975	0.340256
260.126	0.340564
260.282	0.340854
260.439	0.341145
260.593	0.341432
260.744	0.341718
260.892	0.342002
261.041	0.342309
261.189	0.34262
261.336	0.34296
261.484	0.34331
261.632	0.343687
261.78	0.344064
261.928	0.344424
262.077	0.344769
262.222	0.34509
262.367	0.345361
262.512	0.345529
262.655	0.345591
262.798	0.345547
262.942	0.345407
263.086	0.345184
263.229	0.344862
263.373	0.344468
263.515	0.343996
263.656	0.343486
263.796	0.342948
263.933	0.342399
264.07	0.341855
264.209	0.34132
264.347	0.340834
264.484	0.340421
264.623	0.340312
264.76	0.340047
264.899	0.339949
265.037	0.339975
265.176	0.34007
265.315	0.34026
265.454	0.340495
265.595	0.340761
265.736	0.34104
265.878	0.341329
266.021	0.341619
266.163	0.341916
266.306	0.342201
266.449	0.34249
266.594	0.3428
266.74	0.343124
266.889	0.343468
267.038	0.343845
267.189	0.344254
267.34	0.344683
267.493	0.345142
267.643	0.345613
267.79	0.346076
267.94	0.346504
268.091	0.346846
268.242	0.3471
268.393	0.347253
268.543	0.347316
268.691	0.347283
268.837	0.347152
268.978	0.346955
269.117	0.346687
269.257	0.346368
269.393	0.346141
269.53	0.345762
269.666	0.345371
269.801	0.344936
269.936	0.344515
270.072	0.344083
270.211	0.343635
270.349	0.343207
270.486	0.34282
270.625	0.342517
270.764	0.342326
270.903	0.342255
271.042	0.342301
271.18	0.342463
271.317	0.342719
271.456	0.343077
271.592	0.343492
271.722	0.344004
271.848	0.34454
271.971	0.345108
272.094	0.345695
272.218	0.34629
272.342	0.34689
272.467	0.347496
272.595	0.348104
272.725	0.3487
272.856	0.349231
272.986	0.349696
273.117	0.350061
273.251	0.350345
273.38	0.350509
273.506	0.350564
273.633	0.350525
273.762	0.350402
273.892	0.350193
274.025	0.34994
274.159	0.349684
274.297	0.349433
274.436	0.349168
274.573	0.348905
274.711	0.348626
274.849	0.348366
274.986	0.348085
275.123	0.347797
275.261	0.347489
275.394	0.347178
275.528	0.346858
275.665	0.346549
275.801	0.346269
275.937	0.346045
276.074	0.345899
276.211	0.345844
276.349	0.34589
276.489	0.346035
276.626	0.346273
276.761	0.346594
276.894	0.346993
277.027	0.347461
277.161	0.347989
277.295	0.348553
277.429	0.349149
277.563	0.349759
277.699	0.350376
277.834	0.350985
277.969	0.351581
278.104	0.352127
278.24	0.352603
278.379	0.352808
278.517	0.35309
278.654	0.353362
278.794	0.353483
278.934	0.353514
279.077	0.353498
279.223	0.353439
279.37	0.353352
279.516	0.353258
279.666	0.353168
279.815	0.353077
279.967	0.352968
280.12	0.352866
280.271	0.352752
280.422	0.35263
280.574	0.352491
280.726	0.352337
280.875	0.352137
281.023	0.351919
281.169	0.351674
281.316	0.351371
281.465	0.351073
281.615	0.350795
281.765	0.350545
281.917	0.350372
282.074	0.350299
282.235	0.350327
282.398	0.350658
282.561	0.350906
282.72	0.351255
282.877	0.351674
283.028	0.352141
283.177	0.352658
283.327	0.353076
283.48	0.35361
283.634	0.354152
283.789	0.354695
283.945	0.355198
284.104	0.355671
284.266	0.35611
284.425	0.35651
284.582	0.356863
284.737	0.357135
284.887	0.357309
285.039	0.357383
285.189	0.357375
285.337	0.357277
285.481	0.357092
285.625	0.356825
285.768	0.356501
285.911	0.356101
286.051	0.35569
286.191	0.355269
286.33	0.354923
286.467	0.354535
286.601	0.354193
286.736	0.35395
286.869	0.353758
287	0.353648
287.128	0.353647
287.255	0.353705
287.381	0.353841
287.508	0.354008
287.639	0.354207
287.772	0.354438
287.904	0.354692
288.035	0.35498
288.165	0.355292
288.293	0.355626
288.42	0.35594
288.547	0.356254
288.677	0.356564
288.806	0.356847
288.935	0.357114
289.064	0.357361
289.192	0.357589
289.32	0.357796
289.446	0.357983
289.568	0.358198
289.688	0.358362
289.802	0.35851
289.912	0.358631
290.023	0.358754
290.134	0.358844
290.243	0.358889
290.353	0.358862
290.464	0.358781
290.573	0.358648
290.682	0.358473
290.79	0.358282
290.898	0.358084
291.004	0.357878
291.112	0.357697
291.22	0.357542
291.328	0.357416
291.434	0.357317
291.54	0.357237
291.646	0.357159
291.753	0.357097
291.858	0.357037
291.962	0.356962
292.065	0.356906
292.166	0.356805
292.267	0.356797
292.368	0.356776
292.47	0.356763
292.576	0.356758
292.681	0.356837
292.782	0.356956
292.88	0.357109
292.976	0.357292
293.068	0.357495
293.159	0.357728
293.246	0.357973
293.331	0.358223
293.414	0.358482
293.496	0.358748
293.578	0.359032
293.662	0.359328
293.743	0.359646
293.825	0.360015
293.906	0.360383
293.988	0.360757
294.07	0.361098
294.152	0.361436
294.236	0.361687
294.321	0.361879
294.406	0.361775
294.494	0.361706
294.582	0.361614
294.67	0.36148
294.756	0.36133
294.84	0.361179
294.926	0.361027
295.014	0.360885
295.1	0.360748
295.185	0.36063
295.268	0.360519
295.35	0.360416
295.431	0.360328
295.511	0.360269
295.589	0.360225
295.667	0.360205
295.743	0.360204
295.816	0.36021
295.885	0.360206
295.951	0.360218
296.016	0.360232
296.081	0.360256
296.145	0.360288
296.207	0.360333
296.269	0.36039
296.333	0.360458
296.396	0.360567
296.462	0.360704
296.535	0.360866
296.608	0.361017
296.682	0.361197
296.754	0.361354
296.823	0.361442
296.89	0.361503
296.955	0.36153
297.021	0.361542
297.086	0.361553
297.149	0.36158
297.212	0.3616
297.274	0.361615
297.332	0.361636
297.391	0.361663
297.447	0.361688
297.503	0.361716
297.556	0.361738
297.608	0.36176
297.66	0.361797
297.711	0.361823
297.762	0.361856
297.814	0.361901
297.866	0.361864
297.914	0.361812
297.962	0.36183
298.009	0.36185
298.053	0.361943
298.097	0.362008
298.141	0.362087
298.185	0.36218
298.228	0.362318
298.272	0.362473
298.315	0.362654
298.359	0.362844
298.401	0.363028
298.445	0.363203
298.49	0.363345
298.534	0.363449
298.577	0.363505
298.621	0.363527
298.665	0.363513
298.71	0.363463
298.755	0.363404
298.8	0.363314
298.846	0.363214
298.889	0.36309
298.931	0.362952
298.972	0.362751
299.013	0.362546
299.056	0.362379
299.098	0.36224
299.14	0.362164
299.182	0.362067
299.223	0.361985
299.264	0.361929
299.301	0.361897
299.335	0.361889
299.364	0.361898
299.388	0.36193
299.414	0.361998
299.445	0.362114
299.476	0.362265
299.508	0.36245
299.541	0.36267
299.576	0.362916
299.612	0.363197
299.651	0.363455
299.689	0.36371
299.727	0.363957
299.767	0.364139
299.807	0.364311
299.848	0.364453
299.886	0.364553
299.923	0.364726
299.962	0.364856
299.999	0.364974
300.036	0.36507
300.073	0.365145
300.104	0.365217
300.136	0.365266
300.168	0.365307
300.199	0.365336
300.228	0.365352
300.259	0.365369
300.288	0.365372
300.318	0.365364
300.347	0.365348
300.376	0.365323
300.406	0.365297
300.434	0.365247
300.463	0.365237
300.49	0.365225
300.518	0.365243
300.546	0.365279
300.571	0.365339
300.591	0.36542
300.607	0.365524
300.622	0.365596
300.639	0.365627
300.653	0.36571
300.668	0.365769
300.687	0.365773
300.709	0.365727
300.732	0.365621
300.758	0.365488
300.784	0.365311
300.81	0.365111
300.84	0.364895
300.87	0.364675
300.905	0.364433
300.941	0.3642
300.976	0.363956
301.009	0.36371
301.043	0.363467
301.078	0.363245
301.11	0.363042
301.139	0.362855
301.169	0.362706
301.198	0.362588
301.225	0.362535
301.252	0.362565
301.28	0.362703
301.307	0.362998
301.333	0.363343
301.36	0.363769
301.387	0.364311
301.412	0.364863
301.437	0.365462
301.462	0.36607
301.485	0.36665
301.509	0.367226
301.534	0.36776
301.562	0.3682
301.593	0.368538
301.622	0.368758
301.649	0.368854
301.677	0.368861
301.704	0.368774
301.731	0.368616
301.757	0.368397
301.783	0.36815
301.81	0.367901
301.836	0.367639
301.86	0.367377
301.882	0.367125
301.904	0.366914
301.925	0.366821
301.949	0.36671
301.974	0.366631
301.997	0.366622
302.018	0.366701
302.039	0.366811
302.061	0.366971
302.088	0.367175
302.113	0.367398
302.138	0.36764
302.164	0.36791
302.19	0.368168
302.214	0.368423
302.236	0.368663
302.259	0.368879
302.28	0.369081
302.303	0.36924
302.326	0.369339
302.351	0.369351
302.375	0.369263
302.398	0.369113
302.422	0.368887
302.445	0.368609
302.47	0.368283
302.499	0.367924
302.529	0.367451
302.56	0.3671
302.591	0.366751
302.623	0.366398
302.655	0.366062
302.686	0.365746
302.715	0.365448
302.744	0.365154
302.771	0.364888
302.796	0.364645
302.82	0.364425
302.841	0.364239
302.86	0.364086
302.877	0.364015
302.893	0.364005
302.907	0.364066
302.923	0.364208
302.938	0.36443
302.951	0.364764
302.959	0.365149
302.968	0.365603
302.974	0.366106
302.982	0.36664
302.991	0.367185
302.999	0.367715
303.009	0.368199
303.018	0.368715
303.026	0.36914
303.034	0.36951
303.043	0.369842
303.054	0.370105
303.068	0.370286
303.082	0.370418
303.098	0.370491
303.116	0.370525
303.138	0.37051
303.161	0.370458
303.183	0.370368
303.202	0.370273
303.22	0.370155
303.234	0.37004
303.248	0.369917
303.259	0.369791
303.266	0.369672
303.272	0.369555
303.276	0.369443
303.281	0.369324
303.284	0.369223
303.281	0.369131
303.279	0.369056
303.276	0.36892
303.273	0.368894
303.274	0.368925
303.275	0.369002
303.281	0.369032
303.29	0.36906
303.3	0.369054
303.311	0.369016
303.324	0.368976
303.336	0.368879
303.351	0.368755
303.364	0.368642
303.381	0.368546
303.398	0.368483
303.413	0.368471
303.43	0.368489
303.446	0.368545
303.463	0.368629
303.477	0.368741
303.491	0.368859
303.507	0.368972
303.521	0.369081
303.533	0.36918
303.546	0.369262
303.559	0.369272
303.572	0.369237
303.584	0.369298
303.594	0.369329
303.605	0.369307
303.613	0.369272
303.62	0.369224
303.627	0.369175
303.634	0.369135
303.643	0.369107
303.652	0.3691
303.661	0.369093
303.67	0.369103
303.679	0.369104
303.688	0.369135
303.698	0.369146
303.709	0.369123
303.718	0.36909
303.728	0.369049
303.739	0.369022
303.754	0.36901
303.771	0.369008
303.787	0.369014
303.801	0.369045
303.814	0.369095
303.827	0.369096
303.841	0.36927
303.855	0.369357
303.872	0.369433
303.887	0.369498
303.9	0.369567
303.915	0.369634
303.928	0.369675
303.94	0.369716
303.95	0.369743
303.959	0.369759
303.966	0.369777
303.974	0.369778
303.98	0.369781
303.987	0.369764
303.995	0.369749
304.005	0.369748
304.016	0.36976
304.028	0.36978
304.044	0.3698
304.06	0.369818
304.08	0.369831
304.098	0.369814
304.121	0.369768
304.151	0.369711
304.18	0.369626
304.209	0.369572
304.237	0.369511
304.262	0.369494
304.285	0.369467
304.306	0.369433
304.323	0.36941
304.339	0.369416
304.353	0.369446
304.365	0.369474
304.378	0.36953
304.389	0.369594
304.4	0.369673
304.41	0.369776
304.421	0.369877
304.432	0.369973
304.444	0.370074
304.454	0.370168
304.464	0.370251
304.473	0.370318
304.481	0.370365
304.487	0.370412
304.494	0.370469
304.5	0.370514
304.505	0.370509
304.511	0.37051
304.513	0.370538
304.511	0.370455
304.505	0.370322
304.498	0.370106
304.494	0.369874
304.493	0.36963
304.495	0.369396
304.498	0.369174
304.502	0.368959
304.509	0.36877
304.518	0.368615
304.525	0.368486
304.528	0.368404
304.529	0.368363
304.529	0.368357
304.531	0.368386
304.534	0.368436
304.537	0.368511
304.542	0.368605
304.55	0.368701
304.556	0.368803
304.567	0.368922
304.579	0.36903
304.59	0.369116
304.599	0.369293
304.606	0.369419
304.611	0.369597
304.614	0.369753
304.614	0.369925
304.612	0.370052
304.609	0.370178
304.606	0.370264
304.602	0.370317
304.6	0.370352
304.597	0.370357
304.595	0.370349
304.593	0.370323
304.594	0.37031
304.597	0.370262
304.602	0.370208
304.607	0.370159
304.612	0.370124
304.619	0.370095
304.624	0.370088
304.63	0.370085
304.635	0.370121
304.64	0.370179
304.643	0.370221
304.649	0.370304
304.65	0.370473
304.649	0.370592
304.644	0.370725
304.635	0.370871
304.628	0.371016
304.624	0.371144
304.623	0.37125
304.623	0.371348
304.623	0.371446
304.622	0.371534
304.62	0.371637
304.618	0.371724
304.616	0.371828
304.612	0.371918
304.608	0.372007
304.603	0.372067
304.599	0.372091
304.596	0.372088
304.593	0.372023
304.592	0.371904
304.594	0.371724
304.596	0.371494
304.597	0.371257
304.6	0.370974
304.605	0.370711
304.611	0.370471
304.62	0.370201
304.634	0.369978
304.652	0.369744
304.672	0.369537
304.688	0.36933
304.699	0.369135
304.709	0.368955
304.717	0.368785
304.724	0.368643
304.727	0.368492
304.73	0.36837
304.737	0.368271
304.749	0.36818
304.764	0.368118
304.778	0.368125
304.79	0.368177
304.798	0.368323
304.805	0.368583
304.807	0.368922
304.807	0.369358
304.802	0.369864
304.795	0.37053
304.789	0.371112
304.784	0.371735
304.781	0.372306
304.779	0.372853
304.779	0.373345
304.78	0.373737
304.783	0.374039
304.79	0.374238
304.794	0.37433
304.797	0.374329
304.801	0.374242
304.805	0.374082
304.809	0.373859
304.813	0.373572
304.816	0.373257
304.815	0.372927
304.809	0.372593
304.798	0.372263
304.789	0.371948
304.781	0.371663
304.776	0.371395
304.774	0.37115
304.773	0.370953
304.771	0.37081
304.771	0.575448
304.772	0.575352
304.771	0.575268
304.772	0.575145
304.778	0.575011
304.787	0.574823
304.8	0.57463
304.812	0.574408
304.821	0.574154
304.828	0.573862
304.835	0.573562
304.841	0.573269
304.848	0.572999
304.854	0.572768
304.858	0.572587
304.862	0.572487
304.867	0.572455
304.87	0.572495
304.874	0.572622
304.877	0.572807
304.878	0.573048
304.879	0.573329
304.879	0.573601
304.878	0.573887
304.877	0.574157
304.874	0.57453
304.87	0.574792
304.862	0.574984
304.852	0.575116
304.839	0.575195
304.828	0.575191
304.823	0.57513
304.821	0.575051
304.82	0.574943
304.82	0.574851
304.819	0.574795
304.815	0.574757
304.81	0.574751
304.804	0.574762
304.799	0.574814
304.79	0.574872
304.78	0.574938
304.768	0.574993
304.757	0.575043
304.747	0.575084
304.74	0.575074
304.732	0.575012
304.726	0.574979
304.723	0.574951