Temperature Strain
308.441	0.153653
308.443	0.153653
308.442	0.153608
308.44	0.153522
308.435	0.153385
308.423	0.153213
308.405	0.153007
308.376	0.152791
308.343	0.152612
308.312	0.15236
308.286	0.152162
308.264	0.151981
308.245	0.151836
308.231	0.151714
308.221	0.151659
308.212	0.151611
308.204	0.151583
308.197	0.15157
308.19	0.151564
308.181	0.151562
308.17	0.151542
308.157	0.15152
308.143	0.151488
308.13	0.15146
308.115	0.151451
308.097	0.151468
308.077	0.151506
308.055	0.151606
308.033	0.151692
308.012	0.151821
307.995	0.151971
307.978	0.152138
307.963	0.152322
307.947	0.152526
307.927	0.152738
307.898	0.152964
307.867	0.153192
307.829	0.15339
307.789	0.153545
307.747	0.153625
307.7	0.153621
307.651	0.153521
307.609	0.153316
307.57	0.15301
307.532	0.152628
307.492	0.15218
307.452	0.151701
307.41	0.151116
307.368	0.15058
307.325	0.150044
307.285	0.149552
307.247	0.14919
307.21	0.148793
307.168	0.148422
307.121	0.148097
307.077	0.147852
307.036	0.147662
306.997	0.147536
306.96	0.147481
306.924	0.147475
306.889	0.147517
306.854	0.147608
306.82	0.147716
306.782	0.147829
306.741	0.147923
306.698	0.147995
306.653	0.147818
306.605	0.147818
306.558	0.147773
306.511	0.147702
306.462	0.147634
306.41	0.147558
306.358	0.147474
306.307	0.147399
306.254	0.147301
306.203	0.147217
306.148	0.147096
306.092	0.146963
306.034	0.146838
305.98	0.14673
305.932	0.146611
305.891	0.146519
305.857	0.146421
305.827	0.146338
305.793	0.14625
305.755	0.146258
305.71	0.146178
305.655	0.146159
305.593	0.146163
305.525	0.14624
305.454	0.146378
305.379	0.146518
305.298	0.146635
305.217	0.146752
305.133	0.146884
305.048	0.14695
304.961	0.146995
304.876	0.14703
304.796	0.147033
304.717	0.146991
304.641	0.146894
304.564	0.146752
304.489	0.146557
304.414	0.146322
304.342	0.145958
304.268	0.145749
304.196	0.145561
304.125	0.145408
304.054	0.145307
303.984	0.145304
303.914	0.145265
303.84	0.145252
303.768	0.145253
303.695	0.145246
303.621	0.145193
303.551	0.145154
303.487	0.145101
303.421	0.145039
303.351	0.145002
303.275	0.144978
303.19	0.144988
303.096	0.145036
302.997	0.14511
302.896	0.144958
302.798	0.145075
302.701	0.145165
302.606	0.145274
302.512	0.145367
302.424	0.145495
302.338	0.145583
302.252	0.145633
302.164	0.145618
302.075	0.145544
301.982	0.145396
301.886	0.145196
301.787	0.144931
301.688	0.14461
301.585	0.144251
301.482	0.143878
301.381	0.143541
301.279	0.143232
301.18	0.142982
301.08	0.142709
300.978	0.142624
300.873	0.142571
300.77	0.142561
300.67	0.142572
300.569	0.1427
300.467	0.142766
300.367	0.142832
300.27	0.142879
300.173	0.142901
300.078	0.142859
299.983	0.142781
299.886	0.142679
299.788	0.142551
299.69	0.142422
299.594	0.142262
299.497	0.142108
299.4	0.141968
299.302	0.141823
299.207	0.141685
299.117	0.141589
299.031	0.141505
298.948	0.141454
298.867	0.141444
298.791	0.141722
298.72	0.141807
298.65	0.14193
298.581	0.14206
298.514	0.142158
298.449	0.142216
298.379	0.142252
298.305	0.142237
298.228	0.142184
298.148	0.142101
298.064	0.141993
297.978	0.141874
297.887	0.141737
297.796	0.141536
297.704	0.141417
297.609	0.141275
297.509	0.1412
297.411	0.141154
297.311	0.141154
297.212	0.141102
297.115	0.141205
297.019	0.141275
296.928	0.141351
296.839	0.141368
296.751	0.141326
296.663	0.141244
296.576	0.141139
296.491	0.141008
296.41	0.140844
296.334	0.140651
296.263	0.140448
296.195	0.140227
296.127	0.140006
296.054	0.139816
295.977	0.139697
295.895	0.139599
295.811	0.139564
295.726	0.139596
295.639	0.139736
295.548	0.139797
295.455	0.139878
295.363	0.139941
295.273	0.139965
295.184	0.139945
295.094	0.139909
295.004	0.139852
294.915	0.13978
294.828	0.13972
294.74	0.139664
294.652	0.139619
294.559	0.139603
294.467	0.139637
294.376	0.139666
294.287	0.139711
294.196	0.139732
294.105	0.139736
294.013	0.139721
293.92	0.139928
293.825	0.139853
293.728	0.139774
293.629	0.139644
293.531	0.13947
293.432	0.139228
293.332	0.138939
293.23	0.138617
293.126	0.138276
293.018	0.137933
292.906	0.137595
292.792	0.137257
292.679	0.136947
292.567	0.136668
292.45	0.136428
292.336	0.136226
292.221	0.13607
292.106	0.135996
291.984	0.135987
291.861	0.136113
291.737	0.136207
291.617	0.136376
291.497	0.136576
291.377	0.136812
291.258	0.137038
291.138	0.137248
291.019	0.137447
290.901	0.137613
290.784	0.137758
290.668	0.137876
290.556	0.137959
290.441	0.137984
290.325	0.137958
290.21	0.13785
290.097	0.137668
289.982	0.137466
289.868	0.137199
289.756	0.136911
289.647	0.136617
289.538	0.136272
289.428	0.135902
289.316	0.135525
289.199	0.135146
289.08	0.134758
288.958	0.134395
288.835	0.134059
288.71	0.133776
288.586	0.133562
288.46	0.133426
288.332	0.133358
288.205	0.133347
288.079	0.133378
287.95	0.133424
287.822	0.133516
287.694	0.133633
287.567	0.133767
287.44	0.133974
287.315	0.134142
287.191	0.134315
287.063	0.134429
286.932	0.134501
286.798	0.134516
286.663	0.134441
286.53	0.134263
286.398	0.134013
286.267	0.133695
286.138	0.13331
286.01	0.132892
285.886	0.132445
285.761	0.131982
285.638	0.131455
285.515	0.130968
285.395	0.13054
285.275	0.130157
285.156	0.129844
285.038	0.129621
284.92	0.12948
284.805	0.129406
284.69	0.129426
284.573	0.129511
284.454	0.129633
284.337	0.12983
284.222	0.130001
284.11	0.130164
284	0.130328
283.892	0.130491
283.784	0.130646
283.674	0.130804
283.565	0.130948
283.456	0.131063
283.347	0.131144
283.237	0.131164
283.124	0.131141
283.011	0.131092
282.895	0.130981
282.776	0.130846
282.656	0.130677
282.535	0.13049
282.415	0.130254
282.296	0.129987
282.18	0.12969
282.063	0.129363
281.945	0.129036
281.828	0.128734
281.709	0.128456
281.589	0.128208
281.469	0.128005
281.349	0.12787
281.231	0.127779
281.113	0.127671
280.994	0.127667
280.873	0.127693
280.748	0.127757
280.621	0.12786
280.496	0.12798
280.371	0.128115
280.248	0.128247
280.13	0.128326
280.014	0.12836
279.899	0.128346
279.787	0.128225
279.678	0.128017
279.569	0.127745
279.461	0.127395
279.356	0.127007
279.25	0.126599
279.142	0.126171
279.038	0.125646
278.935	0.125257
278.834	0.124914
278.734	0.124639
278.634	0.124468
278.534	0.124363
278.431	0.124383
278.328	0.12451
278.227	0.124668
278.128	0.124865
278.028	0.125078
277.923	0.125275
277.816	0.125477
277.704	0.125694
277.589	0.125879
277.474	0.126014
277.358	0.126098
277.24	0.12613
277.12	0.126085
277	0.126016
276.875	0.125862
276.747	0.125668
276.62	0.125451
276.492	0.125226
276.365	0.125016
276.237	0.124832
276.108	0.124635
275.979	0.124434
275.848	0.124207
275.713	0.12396
275.573	0.123682
275.428	0.1234
275.281	0.123097
275.129	0.122774
274.976	0.122464
274.821	0.122192
274.666	0.121939
274.509	0.121715
274.355	0.121528
274.201	0.12141
274.054	0.121348
273.909	0.121371
273.769	0.12149
273.631	0.121761
273.494	0.122066
273.359	0.122381
273.225	0.122689
273.094	0.122959
272.964	0.123181
272.836	0.123339
272.71	0.123412
272.585	0.123427
272.46	0.123363
272.335	0.123227
272.213	0.123043
272.092	0.122789
271.97	0.122491
271.848	0.122155
271.725	0.121818
271.606	0.121462
271.488	0.121104
271.37	0.120772
271.25	0.120482
271.127	0.120203
271.002	0.119984
270.873	0.119775
270.744	0.119566
270.613	0.119383
270.481	0.119213
270.35	0.119065
270.218	0.118943
270.086	0.11887
269.955	0.118825
269.823	0.118836
269.69	0.11886
269.555	0.118888
269.418	0.118948
269.282	0.118974
269.145	0.118989
269.008	0.119023
268.874	0.11906
268.743	0.119069
268.614	0.119126
268.487	0.119091
268.36	0.119048
268.235	0.118956
268.113	0.118832
267.993	0.11868
267.875	0.118496
267.755	0.118282
267.634	0.118053
267.514	0.117819
267.394	0.117571
267.274	0.11733
267.15	0.117097
267.027	0.116836
266.907	0.116618
266.788	0.116432
266.67	0.11628
266.551	0.116177
266.433	0.116211
266.317	0.11613
266.201	0.116032
266.088	0.115898
265.976	0.11573
265.864	0.115529
265.753	0.115269
265.644	0.114995
265.539	0.114695
265.438	0.11441
265.34	0.114143
265.241	0.113899
265.143	0.113674
265.043	0.113485
264.942	0.113365
264.839	0.113268
264.739	0.113229
264.639	0.113254
264.54	0.113348
264.439	0.113465
264.335	0.113663
264.228	0.11388
264.116	0.114098
264.001	0.114297
263.884	0.114459
263.767	0.114579
263.65	0.114651
263.535	0.114664
263.418	0.114636
263.298	0.11455
263.172	0.114418
263.043	0.114258
262.911	0.114077
262.783	0.113875
262.654	0.113714
262.526	0.113571
262.402	0.113454
262.277	0.113386
262.154	0.113373
262.032	0.113354
261.913	0.113344
261.793	0.113334
261.675	0.113289
261.555	0.113192
261.436	0.113058
261.319	0.112889
261.203	0.112694
261.089	0.112492
260.977	0.112276
260.864	0.112052
260.747	0.111831
260.623	0.111584
260.493	0.111383
260.359	0.111146
260.22	0.110938
260.076	0.110764
259.923	0.110639
259.765	0.110554
259.605	0.110482
259.446	0.110433
259.289	0.110376
259.139	0.1103
258.989	0.110186
258.841	0.110071
258.696	0.109939
258.554	0.109796
258.414	0.109653
258.275	0.109509
258.141	0.109371
258.01	0.109221
257.882	0.109087
257.755	0.10896
257.627	0.10887
257.499	0.10877
257.372	0.108685
257.244	0.108633
257.116	0.108543
256.986	0.108516
256.856	0.108481
256.727	0.108414
256.604	0.10829
256.485	0.108179
256.368	0.108037
256.252	0.107886
256.135	0.107724
256.016	0.107573
255.896	0.107412
255.774	0.107255
255.65	0.107189
255.524	0.107037
255.396	0.106923
255.261	0.106824
255.124	0.10677
254.984	0.106747
254.84	0.106765
254.691	0.106837
254.543	0.106884
254.396	0.106904
254.251	0.106893
254.104	0.106842
253.953	0.106719
253.803	0.106613
253.652	0.106509
253.504	0.106407
253.357	0.106293
253.216	0.106204
253.077	0.106119
252.94	0.106059
252.8	0.105986
252.659	0.105909
252.514	0.105863
252.366	0.105836
252.219	0.105858
252.075	0.105864
251.933	0.105844
251.792	0.10584
251.654	0.105791
251.516	0.105695
251.379	0.105553
251.24	0.105345
251.099	0.10508
250.956	0.104778
250.811	0.10444
250.667	0.104089
250.524	0.103737
250.385	0.103403
250.254	0.102997
250.125	0.102696
249.998	0.102457
249.876	0.102274
249.758	0.102177
249.647	0.102214
249.542	0.102273
249.438	0.102417
249.331	0.102561
249.219	0.102706
249.103	0.102841
248.984	0.102945
248.867	0.10299
248.751	0.103012
248.63	0.102977
248.505	0.102871
248.377	0.102711
248.25	0.102498
248.123	0.102243
247.996	0.101803
247.868	0.101488
247.737	0.101163
247.602	0.100843
247.466	0.100545
247.331	0.100287
247.197	0.100057
247.065	0.0998206
246.931	0.0996472
246.798	0.0994695
246.661	0.0992913
246.522	0.0990881
246.383	0.0988688
246.246	0.0986434
246.111	0.0984145
245.978	0.0981911
245.849	0.097984
245.719	0.0977873
245.585	0.0976013
245.451	0.0973098
245.32	0.0971882
245.192	0.0971188
245.066	0.0970958
244.942	0.0971259
244.821	0.0972186
244.705	0.0973472
244.59	0.097506
244.473	0.0976331
244.357	0.0977609
244.243	0.0978786
244.133	0.0979553
244.023	0.0980096
243.914	0.098012
243.804	0.0979869
243.694	0.0979261
243.582	0.0978583
243.469	0.0977478
243.355	0.0976325
243.24	0.0974899
243.127	0.0973684
243.015	0.0972178
242.902	0.097079
242.786	0.096968
242.665	0.0967804
242.54	0.0967311
242.413	0.096661
242.283	0.0965854
242.151	0.0964879
242.017	0.0963537
241.885	0.0961959
241.753	0.0960213
241.621	0.0958446
241.491	0.0956833
241.363	0.0955327
241.236	0.0953818
241.11	0.0953554
240.984	0.095329
240.859	0.095344
240.734	0.0954158
240.605	0.0955399
240.477	0.0956766
240.349	0.0958065
240.221	0.0958936
240.093	0.0959576
239.968	0.0959864
239.844	0.095929
239.717	0.0957915
239.593	0.0955394
239.463	0.0952293
239.328	0.0948699
239.196	0.0944777
239.065	0.0940661
238.932	0.0936372
238.797	0.0932025
238.659	0.0928036
238.519	0.0924321
238.38	0.0920989
238.242	0.0918209
238.107	0.0915851
237.97	0.0914088
237.833	0.0912934
237.697	0.0913261
237.563	0.0913552
237.433	0.0914072
237.304	0.0915129
237.18	0.0916138
237.057	0.0916571
236.935	0.0917267
236.809	0.0917771
236.683	0.0917947
236.555	0.0917874
236.427	0.091745
236.303	0.0914998
236.184	0.0914269
236.067	0.0913
235.947	0.0911735
235.822	0.0910568
235.693	0.0909616
235.558	0.0908879
235.423	0.0908346
235.289	0.0909384
235.157	0.0909064
235.026	0.090861
234.894	0.0907966
234.762	0.0906948
234.63	0.090543
234.497	0.0903673
234.363	0.0901719
234.229	0.0899569
234.096	0.0897407
233.967	0.0895413
233.838	0.0893683
233.711	0.0893219
233.584	0.089215
233.456	0.0891892
233.329	0.0892372
233.203	0.0893325
233.078	0.0894807
232.955	0.0896503
232.834	0.089965
232.714	0.0901541
232.592	0.09029
232.469	0.0903751
232.349	0.0903762
232.229	0.0902847
232.113	0.0901019
231.997	0.089844
231.881	0.0895307
231.761	0.0891607
231.64	0.0887479
231.518	0.0882176
231.395	0.0877792
231.273	0.0873505
231.153	0.0869502
231.034	0.0865958
230.912	0.0862953
230.788	0.086052
230.664	0.0858627
230.54	0.0857508
230.413	0.0856647
230.285	0.0856611
230.157	0.0856873
230.025	0.0857206
229.895	0.0857619
229.765	0.0857703
229.638	0.0858008
229.511	0.085815
229.385	0.0858263
229.258	0.0858629
229.135	0.0859328
229.012	0.0859928
228.889	0.0860596
228.767	0.086115
228.645	0.0861469
228.523	0.0861664
228.398	0.0860933
228.271	0.0859667
228.141	0.0857777
228.009	0.0854994
227.878	0.0851346
227.747	0.0847199
227.614	0.0842748
227.48	0.0838281
227.347	0.0834019
227.214	0.0830065
227.079	0.0826618
226.945	0.0823894
226.809	0.0821852
226.672	0.0820657
226.534	0.0819872
226.394	0.0819783
226.26	0.0820159
226.129	0.0820873
226.005	0.0821908
225.881	0.0822829
225.756	0.0823724
225.631	0.0824387
225.508	0.0824803
225.384	0.0825078
225.258	0.0825219
225.13	0.0824796
225.003	0.0823967
224.877	0.0822685
224.75	0.0821536
224.622	0.0820166
224.492	0.0818605
224.363	0.0816969
224.234	0.081539
224.104	0.0813858
223.975	0.0812427
223.847	0.0811109
223.719	0.0809892
223.589	0.0810295
223.455	0.0808672
223.319	0.0807313
223.182	0.0805734
223.046	0.0803914
222.913	0.0801791
222.779	0.0798239
222.644	0.0795741
222.507	0.0793207
222.369	0.0790792
222.227	0.0788735
222.087	0.0786835
221.946	0.0785505
221.804	0.0784417
221.661	0.0783522
221.518	0.0782349
221.373	0.0781682
221.224	0.0781091
221.074	0.0780514
220.923	0.0780005
220.769	0.0778692
220.612	0.0778342
220.455	0.0777525
220.3	0.0776437
220.149	0.0775217
220.002	0.0773904
219.859	0.077279
219.719	0.077173
219.58	0.0770853
219.443	0.0770238
219.309	0.0769555
219.178	0.0769012
219.048	0.076848
218.919	0.0767943
218.79	0.0767307
218.658	0.0766679
218.523	0.0766086
218.388	0.0765415
218.253	0.0765581
218.118	0.0764277
217.984	0.0763253
217.849	0.0762051
217.714	0.0760901
217.576	0.0759233
217.438	0.0757779
217.3	0.0756191
217.162	0.0754468
217.025	0.0752617
216.89	0.075076
216.755	0.0748847
216.62	0.0747011
216.486	0.0745423
216.352	0.0744044
216.216	0.0742693
216.08	0.0741598
215.943	0.0738934
215.804	0.0737936
215.661	0.0736241
215.516	0.0734842
215.372	0.0733464
215.228	0.0732307
215.083	0.0731273
214.939	0.0730549
214.796	0.0729854
214.653	0.0729279
214.511	0.0728685
214.368	0.072814
214.223	0.0727651
214.077	0.0727011
213.931	0.0726175
213.787	0.0725036
213.644	0.0723651
213.499	0.0721875
213.353	0.0720072
213.206	0.0717184
213.061	0.0714352
212.92	0.0711241
212.781	0.0708459
212.642	0.0705798
212.503	0.0703439
212.363	0.0701374
212.224	0.0699649
212.085	0.0698204
211.947	0.0697005
211.812	0.0695966
211.68	0.0695202
211.547	0.0694472
211.417	0.0693626
211.287	0.0693008
211.158	0.0692451
211.03	0.0691767
210.903	0.0690622
210.78	0.0689186
210.658	0.0687864
210.541	0.0685857
210.425	0.0683685
210.313	0.0681212
210.202	0.0679046
210.091	0.0676575
209.977	0.0674366
209.86	0.0672599
209.739	0.0671272
209.616	0.0670436
209.49	0.067006
209.364	0.0670153
209.235	0.067068
209.105	0.0672816
208.971	0.0674132
208.835	0.0675753
208.697	0.0676031
208.56	0.0677268
208.421	0.0678418
208.28	0.0679287
208.139	0.0680111
207.999	0.0681025
207.859	0.0682329
207.715	0.0683365
207.57	0.0684385
207.423	0.0685353
207.275	0.0685913
207.125	0.0685974
206.972	0.0685495
206.815	0.0684404
206.654	0.0682649
206.491	0.0680306
206.327	0.0677372
206.162	0.0673653
206.002	0.0669319
205.849	0.0664338
205.697	0.06589
205.548	0.0653578
205.404	0.0648327
205.264	0.0643481
205.127	0.0639199
204.989	0.0635767
204.853	0.0633173
204.717	0.0631296
204.583	0.0630078
204.449	0.0629629
204.315	0.0630078
204.182	0.063049
204.051	0.0630996
203.923	0.0631411
203.796	0.0631888
203.669	0.0631936
203.54	0.0631738
203.41	0.0631154
203.283	0.0630257
203.155	0.0628217
203.03	0.0626353
202.903	0.0624272
202.776	0.062189
202.651	0.0619359
202.529	0.0616913
202.407	0.061453
202.286	0.0614203
202.163	0.0612386
202.042	0.061123
201.919	0.0610114
201.794	0.0609161
201.667	0.060821
201.54	0.0607479
201.411	0.0606798
201.284	0.0606359
201.155	0.060588
201.027	0.0605489
200.9	0.0605132
200.775	0.0604737
200.65	0.0603774
200.524	0.0603785
200.4	0.0603732
200.273	0.0603775
200.143	0.0603939
200.013	0.0603874
199.88	0.0604226
199.744	0.0604527
199.608	0.060468
199.473	0.0604292
199.339	0.0603246
199.206	0.0601641
199.073	0.0599578
198.941	0.059709
198.812	0.0594437
198.684	0.0591736
198.558	0.0589274
198.433	0.0586024
198.312	0.0584018
198.195	0.058234
198.08	0.0581066
197.962	0.0580554
197.846	0.0580576
197.733	0.0581081
197.62	0.0581932
197.512	0.0582965
197.404	0.0584357
197.299	0.0585733
197.194	0.0586973
197.09	0.0587476
196.984	0.0587895
196.877	0.0587785
196.768	0.0587094
196.657	0.0585758
196.54	0.0583725
196.418	0.0581091
196.293	0.0577978
196.166	0.0574305
196.039	0.0570236
195.912	0.0565187
195.784	0.0560379
195.657	0.055694
195.53	0.0552496
195.401	0.0548504
195.272	0.0544918
195.143	0.0541698
195.015	0.0538741
194.886	0.0536058
194.756	0.0533742
194.624	0.0531722
194.491	0.0530003
194.356	0.0528726
194.223	0.0527833
194.087	0.0527262
193.95	0.0526995
193.814	0.0526999
193.678	0.0527107
193.542	0.0527398
193.407	0.0527835
193.271	0.0527854
193.133	0.0528571
192.995	0.0529519
192.858	0.0530513
192.72	0.0531661
192.58	0.0532616
192.44	0.0533291
192.3	0.0533684
192.16	0.0533566
192.019	0.0533103
191.878	0.053236
191.737	0.0531301
191.597	0.0530043
191.456	0.0528763
191.314	0.0527483
191.171	0.0526458
191.026	0.0525627
190.881	0.0524691
190.734	0.0524141
190.587	0.052382
190.442	0.0523602
190.297	0.0524143
190.155	0.0524489
190.016	0.0524863
189.878	0.0525677
189.741	0.0526263
189.604	0.0526499
189.466	0.0526449
189.327	0.0525742
189.186	0.0524599
189.044	0.0523023
188.902	0.0521013
188.76	0.0518492
188.615	0.051559
188.47	0.0512312
188.326	0.0508677
188.18	0.0504662
188.035	0.050222
187.889	0.049842
187.745	0.0495042
187.6	0.0492184
187.453	0.0490538
187.307	0.0488835
187.159	0.0487869
187.013	0.04874
186.868	0.0487281
186.725	0.0487495
186.581	0.048801
186.437	0.0488263
186.291	0.0488437
186.147	0.0488674
186.004	0.0488912
185.865	0.0489051
185.725	0.0489209
185.585	0.0489217
185.445	0.0488995
185.303	0.0489101
185.157	0.0488285
185.007	0.0488192
184.854	0.0486884
184.696	0.0485343
184.535	0.0483817
184.373	0.0481693
184.213	0.0479345
184.054	0.04768
183.896	0.0474222
183.739	0.0471451
183.584	0.0468884
183.429	0.0466544
183.277	0.0464386
183.123	0.0462591
182.967	0.0461219
182.812	0.0460008
182.657	0.0459091
182.502	0.0458308
182.346	0.0457406
182.19	0.0456823
182.034	0.0456487
181.877	0.0456398
181.718	0.045651
181.56	0.0457476
181.4	0.0458132
181.243	0.0458766
181.086	0.0459214
180.93	0.0459168
180.777	0.0458554
180.624	0.0457438
180.473	0.0455774
180.322	0.0453606
180.172	0.0450814
180.023	0.0447678
179.874	0.0444073
179.726	0.0440155
179.579	0.0436552
179.432	0.0433153
179.285	0.0430227
179.14	0.0427822
178.993	0.0426118
178.845	0.0425062
178.698	0.0424751
178.548	0.0425535
178.398	0.0426298
178.246	0.0427279
178.096	0.0428189
177.946	0.0428845
177.795	0.0429375
177.644	0.0429646
177.49	0.042933
177.338	0.042875
177.185	0.0427786
177.031	0.0426337
176.878	0.0424468
176.725	0.0422205
176.571	0.0419532
176.416	0.0416589
176.262	0.0412475
176.108	0.0408839
175.953	0.0405314
175.797	0.0401606
175.637	0.0398005
175.477	0.0394714
175.319	0.0391622
175.163	0.0388566
175.011	0.0385528
174.863	0.038214
174.715	0.0379061
174.568	0.0376019
174.421	0.0373266
174.271	0.0370862
174.118	0.0368917
173.962	0.036732
173.805	0.0366232
173.648	0.0366751
173.49	0.0366903
173.331	0.0367893
173.176	0.0369571
173.024	0.0372097
172.871	0.037379
172.716	0.0377612
172.558	0.038165
172.399	0.0385906
172.24	0.038989
172.081	0.0393209
171.922	0.0395831
171.767	0.0397723
171.614	0.0398881
171.463	0.039921
171.313	0.0399013
171.163	0.0398249
171.014	0.0396981
170.865	0.0395439
170.717	0.0393455
170.569	0.03907
170.422	0.0388497
170.275	0.038667
170.13	0.0385233
169.988	0.0383613
169.845	0.0382799
169.703	0.0382347
169.56	0.0382142
169.415	0.0382064
169.27	0.0381803
169.123	0.0381499
168.974	0.0380967
168.827	0.0380226
168.678	0.0379216
168.529	0.0377717
168.38	0.0375831
168.232	0.0373531
168.083	0.0371311
167.934	0.0368369
167.783	0.0365372
167.635	0.0362445
167.486	0.0359658
167.336	0.0357226
167.187	0.0355856
167.038	0.0354269
166.887	0.0352842
166.733	0.0351497
166.577	0.0350158
166.419	0.0348674
166.259	0.0347066
166.1	0.0345384
165.941	0.0343758
165.783	0.0342212
165.627	0.034069
165.471	0.0339338
165.316	0.0338214
165.162	0.0337777
165.007	0.0339482
164.85	0.0344288
164.69	0.0351897
164.53	0.03631
164.372	0.0377338
164.215	0.0394646
164.059	0.0414524
163.904	0.0435948
163.749	0.0458027
163.594	0.0480232
163.441	0.0502577
163.288	0.0524929
163.136	0.0547113
162.986	0.0569228
162.839	0.059115
162.696	0.0612756
162.557	0.0633802
162.42	0.0654352
162.289	0.0674536
162.162	0.0694353
162.039	0.0713899
161.916	0.0733307
161.794	0.0752598
161.671	0.0771864
161.547	0.0791153
161.423	0.0810584
161.298	0.0830921
161.172	0.0850698
161.045	0.0870618
160.915	0.089084
160.78	0.0911149
160.644	0.0931615
160.506	0.0952175
160.365	0.0973004
160.22	0.0994187
160.073	0.101574
159.924	0.103762
159.775	0.106001
159.626	0.108264
159.477	0.110543
159.328	0.1128
159.178	0.115076
159.026	0.117357
158.873	0.119561
158.716	0.121873
158.559	0.124175
158.404	0.126491
158.25	0.128791
158.097	0.131075
157.943	0.133334
157.785	0.135586
157.629	0.137829
157.471	0.140137
157.314	0.142589
157.155	0.145248
156.999	0.148161
156.844	0.15137
156.688	0.154932
156.531	0.158826
156.374	0.163101
156.217	0.167783
156.061	0.172849
155.906	0.178349
155.753	0.184329
155.6	0.190642
155.449	0.197318
155.301	0.204333
155.159	0.211653
155.017	0.219264
154.873	0.227117
154.729	0.235211
154.585	0.243533
154.44	0.252069
154.298	0.260833
154.156	0.269815
154.015	0.278996
153.878	0.288364
153.746	0.297935
153.617	0.3077
153.493	0.317627
153.371	0.327533
153.252	0.337515
153.134	0.347579
153.016	0.35772
152.899	0.367983
152.778	0.378423
152.655	0.389033
152.531	0.399935
152.403	0.411086
152.275	0.422499
152.144	0.434159
152.013	0.446061
151.879	0.458189
151.738	0.470529
151.594	0.483061
151.448	0.495774
151.3	0.508651
151.156	0.521688
151.012	0.534858
150.866	0.548115
150.72	0.561331
150.575	0.574395
150.435	0.587349
150.295	0.600115
150.159	0.612697
150.023	0.625129
149.891	0.637453
149.762	0.649731
149.631	0.662053
149.503	0.674441
149.377	0.686879
149.256	0.699376
149.134	0.711935
149.013	0.724557
148.888	0.73726
148.765	0.750057
148.644	0.762982
148.523	0.776034
148.4	0.7892
148.282	0.802501
148.162	0.815893
148.043	0.829408
147.922	0.84303
147.801	0.856751
147.68	0.870596
147.559	0.884542
147.438	0.898579
147.318	0.912679
147.2	0.92685
147.079	0.941048
146.955	0.955289
146.83	0.969539
146.706	0.983821
146.583	0.99812
146.46	1.01244
146.331	1.02682
146.2	1.04116
146.068	1.05553
145.934	1.06996
145.801	1.08444
145.668	1.09903
145.53	1.1137
145.387	1.12847
145.246	1.14329
145.105	1.15819
144.965	1.17311
144.826	1.18807
144.684	1.20306
144.538	1.21807
144.392	1.2331
144.242	1.24814
144.088	1.26319
143.933	1.27821
143.774	1.29313
143.612	1.30791
143.452	1.32249
143.291	1.33682
143.131	1.35093
142.97	1.3648
142.811	1.37842
142.653	1.39177
142.499	1.40485
142.345	1.41761
142.193	1.43008
142.04	1.44225
141.889	1.45411
141.737	1.46569
141.587	1.47701
141.439	1.48807
141.291	1.49888
141.146	1.50949
141.002	1.51987
140.854	1.53006
140.704	1.54019
140.556	1.55002
140.409	1.55967
140.262	1.56917
140.109	1.5785
139.954	1.58765
139.797	1.59667
139.64	1.60571
139.479	1.61475
139.317	1.62368
139.157	1.63252
138.995	1.64122
138.831	1.64972
138.664	1.658
138.497	1.66597
138.33	1.67368
138.166	1.68113
138	1.68835
137.833	1.69531
137.665	1.70212
137.499	1.70875
137.332	1.71524
137.163	1.72161
136.992	1.72787
136.819	1.734
136.646	1.74003
136.473	1.74595
136.3	1.75174
136.125	1.75738
135.948	1.76287
135.77	1.7682
135.593	1.77336
135.42	1.77833
135.249	1.78311
135.078	1.78772
134.907	1.79217
134.737	1.79644
134.574	1.80062
134.412	1.8047
134.251	1.80854
134.092	1.81247
133.933	1.81636
133.776	1.82025
133.621	1.82412
133.468	1.828
133.315	1.83189
133.164	1.83575
133.011	1.83961
132.856	1.84343
132.706	1.84719
132.555	1.8509
132.403	1.85452
132.254	1.85804
132.106	1.86148
131.955	1.86486
131.806	1.86816
131.658	1.87139
131.505	1.87459
131.352	1.87773
131.197	1.88082
131.045	1.88389
130.891	1.88692
130.738	1.8899
130.583	1.89291
130.423	1.8959
130.264	1.89884
130.106	1.90177
129.949	1.9046
129.79	1.90735
129.631	1.90999
129.472	1.91252
129.313	1.91495
129.151	1.91728
128.991	1.91953
128.832	1.92168
128.672	1.92372
128.512	1.92575
128.353	1.92773
128.196	1.92967
128.04	1.93158
127.885	1.93346
127.731	1.93529
127.581	1.93713
127.431	1.93896
127.283	1.94066
127.132	1.94225
126.985	1.94368
126.839	1.94497
126.693	1.94611
126.547	1.94712
126.4	1.94798
126.249	1.94872
126.1	1.94929
125.952	1.94985
125.801	1.95036
125.652	1.95085
125.505	1.95133
125.359	1.95179
125.214	1.95221
125.072	1.95269
124.929	1.95304
124.787	1.95351
124.648	1.95403
124.51	1.95458
124.375	1.95521
124.238	1.95591
124.102	1.95668
123.964	1.95753
123.825	1.95844
123.685	1.95945
123.544	1.9605
123.402	1.96165
123.26	1.96284
123.116	1.96406
122.971	1.96533
122.825	1.96662
122.679	1.9679
122.534	1.96917
122.385	1.97045
122.234	1.97164
122.083	1.97275
121.933	1.97377
121.783	1.97469
121.636	1.97551
121.487	1.97624
121.34	1.97689
121.194	1.97749
121.048	1.97799
120.903	1.97854
120.759	1.97907
120.615	1.97962
120.472	1.98021
120.328	1.98081
120.184	1.98144
120.04	1.98211
119.894	1.98277
119.746	1.98347
119.6	1.98414
119.455	1.98479
119.314	1.98557
119.172	1.98619
119.027	1.98676
118.88	1.98729
118.732	1.98778
118.58	1.98826
118.433	1.98863
118.287	1.989
118.14	1.98935
117.988	1.98971
117.835	1.99011
117.683	1.99054
117.535	1.99103
117.387	1.99157
117.237	1.99215
117.086	1.99276
116.936	1.99341
116.785	1.9941
116.631	1.99478
116.477	1.99547
116.32	1.99618
116.166	1.99685
116.013	1.99752
115.858	1.99813
115.705	1.9987
115.554	1.99922
115.404	1.99972
115.257	2.00016
115.107	2.00052
114.957	2.00092
114.81	2.00131
114.661	2.00167
114.51	2.00198
114.36	2.00227
114.21	2.00252
114.06	2.00274
113.911	2.00299
113.762	2.00316
113.613	2.0033
113.464	2.00341
113.314	2.00348
113.166	2.0035
113.016	2.00353
112.867	2.0035
112.718	2.00347
112.569	2.00348
112.419	2.00352
112.27	2.00368
112.12	2.00392
111.971	2.00422
111.822	2.00452
111.675	2.00498
111.528	2.0055
111.38	2.00615
111.238	2.00675
111.094	2.00737
110.951	2.008
110.81	2.00859
110.667	2.00923
110.522	2.00991
110.376	2.01056
110.224	2.01122
110.076	2.01187
109.927	2.01252
109.777	2.01313
109.625	2.01371
109.471	2.01421
109.316	2.01465
109.16	2.01501
109.003	2.01529
108.847	2.01549
108.69	2.01564
108.536	2.01576
108.381	2.01577
108.226	2.01577
108.072	2.01577
107.918	2.01575
107.764	2.01577
107.613	2.01579
107.463	2.01582
107.318	2.01588
107.171	2.01595
107.023	2.01605
106.876	2.01618
106.733	2.0163
106.589	2.01643
106.445	2.01656
106.3	2.01668
106.153	2.01681
106.006	2.01685
105.861	2.01685
105.715	2.01673
105.568	2.0166
105.422	2.01646
105.275	2.01631
105.132	2.01619
104.99	2.0161
104.845	2.01608
104.701	2.01612
104.556	2.01624
104.409	2.01643
104.262	2.01667
104.116	2.01698
103.969	2.0173
103.823	2.01765
103.677	2.01796
103.532	2.01832
103.386	2.01865
103.241	2.01897
103.094	2.01928
102.947	2.01952
102.8	2.01974
102.653	2.01992
102.506	2.02007
102.359	2.0202
102.211	2.02032
102.064	2.0204
101.918	2.0205
101.772	2.0206
101.627	2.02071
101.48	2.02083
101.334	2.02097
101.189	2.02106
101.044	2.02119
100.899	2.02129
100.754	2.02137
100.608	2.02146
100.462	2.02147
100.317	2.0215
100.171	2.02145
100.028	2.02137
99.8842	2.02128
99.7382	2.02121
99.594	2.02116
99.4487	2.02112
99.3055	2.02112
99.1694	2.0211
99.0308	2.02109
98.8923	2.02109
98.7555	2.02112
98.6206	2.02114
98.4873	2.02121
98.3555	2.02129
98.2238	2.0214
98.0938	2.02152
97.9628	2.02173
97.8327	2.02199
97.7016	2.02223
97.5687	2.02247
97.4355	2.02275
97.301	2.02313
97.1667	2.02343
97.0329	2.02375
96.8968	2.02405
96.7598	2.02434
96.6217	2.0246
96.484	2.02484
96.3452	2.02507
96.2053	2.02523
96.0646	2.02534
95.925	2.0254
95.785	2.0257
95.6448	2.02568
95.5035	2.02564
95.3622	2.02558
95.2205	2.02553
95.0789	2.0255
94.9374	2.02552
94.796	2.02556
94.6548	2.02563
94.5135	2.02572
94.3707	2.02581
94.2268	2.02584
94.0836	2.02592
93.94	2.02595
93.7959	2.02595
93.6527	2.0259
93.5053	2.02581
93.3598	2.02567
93.2161	2.02549
93.0732	2.02537
92.9313	2.0252
92.7887	2.02508
92.6456	2.025
92.503	2.02499
92.3596	2.02505
92.2162	2.02519
92.0723	2.0254
91.9282	2.02568
91.7844	2.02602
91.6413	2.02641
91.4942	2.0269
91.3467	2.02737
91.2011	2.02781
91.0529	2.02822
90.9065	2.02856
90.7598	2.02885
90.6083	2.02907
90.4574	2.02925
90.3072	2.02934
90.1571	2.02937
90.0075	2.02935
89.8605	2.0293
89.7139	2.02927
89.5674	2.02924
89.4203	2.02923
89.2718	2.02923
89.1243	2.02925
88.9757	2.02929
88.8284	2.02932
88.6796	2.02937
88.5298	2.0294
88.3802	2.02942
88.2327	2.0294
88.0842	2.02937
87.9343	2.02924
87.7825	2.02915
87.6298	2.02904
87.4797	2.02891
87.3301	2.02878
87.18	2.02864
87.0278	2.0285
86.8757	2.02836
86.7225	2.02822
86.5724	2.02812
86.4259	2.02804
86.2773	2.02795
86.1291	2.02794
85.9823	2.02797
85.8354	2.02803
85.6887	2.02811
85.5418	2.02823
85.3926	2.02836
85.2406	2.02849
85.0899	2.02864
84.9418	2.02879
84.7937	2.02897
84.646	2.02918
84.4983	2.0294
84.3512	2.02965
84.2041	2.02991
84.0566	2.03016
83.9093	2.03042
83.7631	2.03064
83.6138	2.03085
83.4636	2.03096
83.3155	2.03105
83.1688	2.03113
83.021	2.03119
82.872	2.03123
82.7197	2.03121
82.5684	2.0312
82.4232	2.03121
82.2774	2.03119
82.1281	2.03118
81.9754	2.03117
81.8217	2.03118
81.6696	2.03121
81.5181	2.03126
81.3678	2.03135
81.2192	2.0314
81.0708	2.03116
80.924	2.03118
80.7774	2.0312
80.6308	2.03113
80.4853	2.03103
80.343	2.03087
80.2004	2.03067
80.0569	2.03049
79.9149	2.03025
79.776	2.02999
79.6351	2.02976
79.4946	2.02956
79.3584	2.0294
79.2194	2.02927
79.0799	2.02918
78.9399	2.02914
78.7974	2.02918
78.6541	2.02923
78.5102	2.02933
78.3674	2.02934
78.2254	2.02941
78.0868	2.02943
77.947	2.02942
77.8044	2.02938
77.6651	2.02914
77.5235	2.02902
77.38	2.02891
77.2365	2.0288
77.0911	2.02871
76.9462	2.02864
76.8074	2.02861
76.6687	2.02862
76.5265	2.02869
76.3824	2.0288
76.2407	2.029
76.1021	2.02922
75.9633	2.02947
75.8234	2.02971
75.6787	2.02997
75.5305	2.03022
75.3837	2.03047
75.2384	2.03066
75.0902	2.0308
74.9415	2.03074
74.7925	2.03077
74.6433	2.0308
74.4977	2.03078
74.3553	2.03076
74.2128	2.03073
74.0667	2.0307
73.9212	2.03068
73.7758	2.03068
73.6316	2.03077
73.4897	2.03086
73.3492	2.03102
73.2082	2.03113
73.0648	2.03122
72.9201	2.03127
72.7777	2.03129
72.639	2.03128
72.4951	2.03123
72.3498	2.03114
72.2043	2.0311
72.0601	2.03098
71.9206	2.03083
71.7791	2.03068
71.6341	2.03052
71.4902	2.03035
71.3464	2.0302
71.2051	2.03005
71.0657	2.02998
70.9276	2.02993
70.787	2.02991
70.6451	2.02992
70.5021	2.02993
70.3607	2.02997
70.2203	2.03001
70.078	2.03004
69.9339	2.03004
69.7865	2.03002
69.6425	2.03002
69.4963	2.02995
69.3476	2.02992
69.1985	2.0299
69.0482	2.02988
68.9016	2.02983
68.7537	2.02979
68.6014	2.02975
68.4518	2.0297
68.3048	2.02975
68.1578	2.02978
68.0114	2.02979
67.8621	2.02981
67.7135	2.02985
67.5663	2.02989
67.4171	2.0299
67.2649	2.02992
67.1162	2.02992
66.9669	2.0302
66.8139	2.03019
66.6622	2.0302
66.5115	2.03023
66.3593	2.03024
66.2084	2.0303
66.0585	2.03035
65.9045	2.03041
65.7531	2.0305
65.6015	2.03053
65.4481	2.03058
65.2935	2.03065
65.1376	2.03066
64.9819	2.03064
64.8288	2.03062
64.6793	2.03059
64.5318	2.03057
64.3877	2.03053
64.2406	2.03045
64.093	2.03041
63.9471	2.03038
63.8017	2.03043
63.6561	2.03047
63.5102	2.03053
63.3666	2.0306
63.224	2.03068
63.0795	2.03095
62.9347	2.0311
62.7904	2.03124
62.6456	2.03136
62.4986	2.03144
62.3493	2.03148
62.2014	2.0315
62.0548	2.03147
61.9087	2.03135
61.7629	2.03123
61.6135	2.03105
61.4667	2.03087
61.3209	2.03068
61.1752	2.03051
61.0284	2.03036
60.8817	2.03023
60.7347	2.03015
60.5884	2.03011
60.4408	2.03009
60.2937	2.03024
60.1476	2.03028
59.9996	2.0303
59.8491	2.03033
59.7012	2.03035
59.5544	2.03034
59.4098	2.03033
59.2645	2.0303
59.1181	2.03025
58.9731	2.03011
58.8316	2.02996
58.6927	2.0298
58.5506	2.02963
58.4109	2.02948
58.2753	2.02935
58.1404	2.02925
58.0043	2.02917
57.8682	2.02914
57.7363	2.02918
57.6069	2.0292
57.4782	2.02933
57.348	2.02951
57.2184	2.02972
57.0896	2.02995
56.9651	2.03022
56.8404	2.03052
56.7139	2.03087
56.5914	2.03123
56.4687	2.03161
56.3438	2.032
56.2251	2.0324
56.1038	2.03281
55.9841	2.03319
55.8659	2.03357
55.7476	2.03393
55.6305	2.03427
55.5146	2.03458
55.3986	2.0348
55.2814	2.035
55.1667	2.03515
55.0536	2.03523
54.9405	2.0354
54.8275	2.03539
54.7141	2.03534
54.6024	2.03525
54.4898	2.03513
54.3761	2.03492
54.2581	2.03472
54.1428	2.03449
54.031	2.03425
53.9195	2.03403
53.8084	2.03381
53.6985	2.03363
53.5892	2.03345
53.4773	2.0333
53.3641	2.03289
53.2542	2.03284
53.145	2.03277
53.0356	2.03272
52.9271	2.03268
52.8182	2.03266
52.7098	2.03267
52.6032	2.0327
52.4976	2.03272
52.3937	2.03276
52.2907	2.03283
52.1883	2.03287
52.0876	2.03296
51.9875	2.03307
51.8892	2.03316
51.7924	2.03326
51.6961	2.03333
51.5994	2.03338
51.5046	2.03342
51.4108	2.03343
51.318	2.03343
51.2241	2.03336
51.1306	2.03331
51.0387	2.03326
50.9459	2.03321
50.8539	2.03315
50.7602	2.03307
50.6657	2.03299
50.5717	2.0329
50.4782	2.03285
50.3847	2.03283
50.2921	2.03287
50.1998	2.03299
50.1079	2.03318
50.017	2.03352
49.9265	2.03389
49.8374	2.03428
49.7478	2.03469
49.6586	2.03509
49.5696	2.03549
49.4805	2.03587
49.3919	2.03622
49.3032	2.03652
49.2145	2.0368
49.1264	2.03704
49.0381	2.03727
48.9517	2.03747
48.8651	2.03765
48.7795	2.03781
48.6948	2.03792
48.6088	2.03806
48.5268	2.03818
48.4444	2.03833
48.3628	2.03848
48.2814	2.03864
48.2001	2.03882
48.1193	2.039
48.0382	2.03918
47.9575	2.03934
47.8769	2.03949
47.7981	2.0396
47.7189	2.03967
47.6418	2.03968
47.5653	2.03962
47.488	2.0395
47.4124	2.0393
47.3363	2.03904
47.2626	2.03871
47.188	2.03833
47.1136	2.0379
47.0391	2.03742
46.9661	2.03686
46.8938	2.0362
46.8218	2.03552
46.7506	2.03483
46.6817	2.03415
46.6127	2.03347
46.5445	2.03283
46.4791	2.03224
46.4121	2.03172
46.3468	2.03128
46.2859	2.03093
46.2216	2.03069
46.1581	2.03056
46.0941	2.0306
46.0311	2.03066
45.9696	2.03069
45.9072	2.03097
45.8456	2.03132
45.785	2.03175
45.7241	2.03222
45.6637	2.03273
45.6057	2.03324
45.5476	2.03381
45.4907	2.03435
45.4339	2.03485
45.3799	2.03533
45.3268	2.03575
45.2736	2.0361
45.2222	2.03641
45.1705	2.03669
45.1209	2.03692
45.0714	2.03713
45.0224	2.03728
44.9747	2.03738
44.9271	2.03744
44.8799	2.03744
44.833	2.03738
44.788	2.03722
44.7433	2.03705
44.6987	2.03685
44.6532	2.03664
44.608	2.03641
44.564	2.03619
44.5188	2.03596
44.4743	2.03576
44.4297	2.03558
44.3851	2.03542
44.3395	2.03528
44.2942	2.03516
44.2506	2.03511
44.2064	2.03505
44.1623	2.035
44.118	2.03498
44.0745	2.035
44.0306	2.03501
43.9879	2.03507
43.9449	2.0351
43.9014	2.03511
43.8575	2.03508
43.8141	2.03503
43.7712	2.03493
43.7295	2.03475
43.6881	2.03451
43.6468	2.03415
43.6051	2.03376
43.563	2.03333
43.5213	2.0329
43.4801	2.03246
43.4399	2.03203
43.3999	2.03163
43.3612	2.03128
43.3217	2.03099
43.2834	2.03076
43.2449	2.03058
43.2075	2.03047
43.1709	2.03041
43.1348	2.0304
43.0992	2.03042
43.0647	2.0305
43.0303	2.03056
42.9965	2.03063
42.9629	2.03069
42.9284	2.03074
42.896	2.03077
42.8635	2.0308
42.8273	2.0308
42.794	2.03082
42.7613	2.03084
42.7283	2.03087
42.6944	2.03092
42.6606	2.03101
42.6283	2.03112
42.5951	2.03125
42.5618	2.03142
42.5293	2.03161
42.4967	2.0318
42.4638	2.03201
42.4315	2.03226
42.3987	2.03255
42.3671	2.03287
42.3335	2.03327
42.3014	2.03371
42.2691	2.03418
42.238	2.03463
42.2072	2.03509
42.1764	2.03552
42.1477	2.03592
42.1194	2.03626
42.091	2.03653
42.0625	2.03673
42.0354	2.03686
42.0081	2.03689
41.9792	2.03685
41.9517	2.03665
41.9222	2.03647
41.8937	2.03618
41.8654	2.03582
41.8357	2.03539
41.8068	2.03491
41.7777	2.03439
41.7482	2.03383
41.7194	2.03328
41.692	2.0327
41.6636	2.03216
41.6348	2.03163
41.6063	2.03112
41.5776	2.03064
41.5494	2.03025
41.5218	2.02988
41.4949	2.02955
41.4685	2.02924
41.4428	2.02899
41.4174	2.0288
41.3921	2.0287
41.3683	2.02864
41.3445	2.02865
41.3198	2.02871
41.2944	2.02885
41.2704	2.02899
41.2466	2.02914
41.2249	2.02932
41.2015	2.0295
41.1781	2.02968
41.1541	2.02984
41.1279	2.02998
41.1022	2.03011
41.0769	2.03021
41.0517	2.03032
41.0269	2.03043
41.0021	2.03053
40.9762	2.03063
40.9501	2.03072
40.9249	2.0308
40.899	2.03084
40.8727	2.03091
40.8477	2.03094
40.823	2.03098
40.7973	2.03102
40.7713	2.03107
40.7457	2.03114
40.7213	2.03123
40.697	2.03136
40.6724	2.03148
40.6482	2.03165
40.6259	2.03184
40.6028	2.03204
40.579	2.03223
40.5549	2.03243
40.53	2.03262
40.506	2.03269
40.4817	2.03276
40.4582	2.03281
40.4338	2.03283
40.4089	2.03284
40.3835	2.03284
40.3597	2.03283
40.335	2.0328
40.3106	2.03275
40.2859	2.0327
40.2619	2.03264
40.2376	2.03257
40.2132	2.0325
40.189	2.03243
40.1651	2.03236
40.1415	2.03229
40.1164	2.0322
40.0918	2.03214
40.0686	2.03209
40.0426	2.03205
40.0194	2.03203
39.9965	2.03204
39.9743	2.03207
39.9524	2.03214
39.9309	2.03223
39.9095	2.03234
39.8892	2.03256
39.8679	2.03274
39.8467	2.03291
39.8282	2.03303
39.8086	2.03306
39.7886	2.03306
39.769	2.03298
39.7481	2.03285
39.7269	2.03267
39.7057	2.03243
39.6831	2.03215
39.6608	2.03184
39.6396	2.03151
39.6185	2.03118
39.5964	2.03085
39.5739	2.03054
39.5515	2.03025
39.5299	2.02999
39.508	2.02976
39.4848	2.02948
39.4624	2.02932
39.4404	2.02919
39.4179	2.02911
39.3954	2.02906
39.376	2.02906
39.3548	2.02917
39.3346	2.02921
39.3144	2.0293
39.2943	2.02942
39.2732	2.02956
39.2522	2.02973
39.232	2.02991
39.2118	2.03008
39.1925	2.03023
39.1727	2.03037
39.1525	2.03048
39.1343	2.03056
39.1164	2.03062
39.1001	2.03065
39.0843	2.03065
39.0695	2.03063
39.0536	2.0306
39.0374	2.03055
39.0228	2.0305
39.0069	2.03045
38.9915	2.03038
38.9764	2.03031
38.9634	2.03024
38.9505	2.03017
38.9366	2.03008
38.9232	2.03001
38.9097	2.02993
38.8954	2.02989
38.8825	2.02988
38.8677	2.02988
38.8537	2.0299
38.8402	2.02996
38.8268	2.03007
38.8138	2.0302
38.8008	2.03035
38.7878	2.03052
38.7741	2.0307
38.7607	2.03087
38.7463	2.03103
38.733	2.03118
38.7198	2.03131
38.7079	2.03141
38.6956	2.03149
38.6836	2.03153
38.6715	2.03155
38.6582	2.03156
38.6448	2.03155
38.6322	2.03153
38.6188	2.0315
38.6057	2.03157
38.5922	2.03157
38.5797	2.03151
38.568	2.0314
38.5536	2.03133
38.5411	2.03121
38.5287	2.03109
38.5156	2.03101
38.5036	2.03094
38.4926	2.03089
38.4809	2.03087
38.4683	2.03087
38.4576	2.0309
38.445	2.03095
38.4338	2.03102
38.4221	2.03111
38.4104	2.03123
38.4001	2.03133
38.3896	2.03141
38.3785	2.03146
38.368	2.03147
38.3565	2.03141
38.3452	2.03131
38.3348	2.03114
38.3252	2.03093
38.3136	2.03066
38.3039	2.03029
38.2936	2.02992
38.2836	2.02953
38.2727	2.02907
38.2632	2.02867
38.253	2.02826
38.2426	2.02789
38.2319	2.0276
38.2212	2.02735
38.2113	2.02715
38.2019	2.02698
38.1901	2.02684
38.1784	2.02675
38.1659	2.02671
38.1531	2.02672
38.1406	2.02677
38.1286	2.02687
38.1173	2.02701
38.1051	2.02719
38.0923	2.02748
38.0796	2.02771
38.0673	2.02796
38.0539	2.0282
38.0411	2.02843
38.0282	2.02865
38.0149	2.02878
38.0011	2.02892
37.99	2.02902
37.9766	2.02908
37.9652	2.02915
37.9536	2.02916
37.9404	2.02918
37.9288	2.02912
37.917	2.02912
37.9049	2.02912
37.8932	2.02911
37.882	2.02911
37.8702	2.02911
37.8589	2.02911
37.8468	2.02911
37.8359	2.0291
37.8241	2.0291
37.8131	2.0291
37.8024	2.02911
37.7911	2.02913
37.7806	2.02917
37.7696	2.02922
37.7573	2.02931
37.7448	2.02942
37.732	2.02959
37.7175	2.02976
37.7038	2.02995
37.6891	2.0301
37.6745	2.03022
37.6594	2.03025
37.6431	2.03034
37.6279	2.03038
37.6134	2.03039
37.5976	2.03039
37.5832	2.03037
37.5702	2.03034
37.5545	2.0303
37.5408	2.03026
37.5263	2.03021
37.5129	2.03016
37.5	2.0301
37.4868	2.03004
37.4745	2.02998
37.4636	2.02993
37.4538	2.02987
37.444	2.02981
37.4332	2.02976
37.4224	2.0297
37.4121	2.02965
37.401	2.0296
37.3909	2.02958
37.382	2.02961
37.3724	2.02969
37.3648	2.02974
37.3564	2.02981
37.3485	2.02989
37.3401	2.02994
37.3325	2.02999
37.3247	2.03004
37.3168	2.0301
37.3085	2.03013
37.3006	2.03014
37.2923	2.03012
37.2842	2.03005
37.2761	2.02995
37.267	2.0298
37.2586	2.02962
37.2501	2.02942
37.2413	2.02921
37.2339	2.02901
37.2258	2.02881
37.217	2.02861
37.209	2.02844
37.2004	2.02828
37.1917	2.02813
37.1831	2.028
37.1759	2.0279
37.1667	2.02786
37.1601	2.02787
37.154	2.02788
37.1474	2.0279
37.1427	2.02793
37.1369	2.02792
37.1306	2.0279
37.1243	2.02792
37.1179	2.028
37.1106	2.02813
37.1037	2.0283
37.0957	2.02846
37.089	2.02862
37.0813	2.02876
37.0739	2.02889
37.0666	2.02899
37.0595	2.02906
37.0528	2.02911
37.0465	2.02912
37.0407	2.02912
37.0356	2.02911
37.0312	2.02908
37.0275	2.02904
37.0254	2.02899
37.0231	2.02895
37.0216	2.02891
37.0197	2.02885
37.0176	2.02877
37.0185	2.02868
37.0179	2.02857
37.0176	2.02853
37.0196	2.02841
37.0188	2.0283
37.0173	2.02814
37.0172	2.02805
37.0161	2.02799
37.015	2.02798
37.0139	2.02804
37.013	2.02812
37.0122	2.02823
37.0113	2.02834
37.0094	2.02847
37.0091	2.0286
37.009	2.02872
37.0095	2.02883
37.0104	2.02891
37.0095	2.02896
37.0108	2.02896
37.0109	2.02896
37.01	2.02894
37.0088	2.0289
37.0067	2.02884
37.0052	2.02881
37.0038	2.02873
37.0022	2.02862
37	2.0285
36.9975	2.02836
36.9956	2.02821
36.9933	2.02805
36.9918	2.02788
36.9904	2.0277
36.9894	2.02753
36.988	2.02734
36.9872	2.02717
36.986	2.027
36.9851	2.02682
36.9854	2.02664
36.9856	2.02647
36.9872	2.0263
36.989	2.02613
36.9902	2.02596
36.9922	2.02578
36.994	2.02562
36.9976	2.02544
37.001	2.02525
37.0053	2.02503
37.0102	2.0248
37.0152	2.02455
37.0209	2.02428
37.0264	2.024
37.0322	2.02375
37.0401	2.02346
37.0484	2.02315
37.0576	2.02288
37.0672	2.02283
37.0777	2.02301
37.0902	2.0234
37.1015	2.02392
37.1143	2.02448
37.127	2.02505
37.1405	2.02564
37.1544	2.02622
37.1686	2.02681
37.1841	2.02739
37.2012	2.02797
37.2188	2.02855
37.2369	2.02911
37.2555	2.02968
37.2765	2.03022
37.2981	2.0307
37.3198	2.031
37.3442	2.03118
37.3697	2.0312
37.3953	2.0311
37.4225	2.03091
37.4509	2.0307
37.4782	2.03053
37.5085	2.03034
37.5413	2.03014
37.5752	2.02992
37.6109	2.02968
37.6487	2.02946
37.6878	2.02928
37.7284	2.02916
37.7711	2.02911
37.8151	2.02913
37.8605	2.02922
37.9064	2.02937
37.9541	2.02959
38.0029	2.02985
38.0527	2.03013
38.1053	2.03043
38.1585	2.03072
38.2128	2.031
38.2689	2.03126
38.3278	2.0315
38.3879	2.03173
38.4496	2.03193
38.5141	2.03211
38.5797	2.03227
38.6471	2.03241
38.7168	2.03253
38.7851	2.03272
38.8556	2.03285
38.9271	2.03289
38.9987	2.03288
39.0704	2.03283
39.145	2.03269
39.2197	2.03252
39.296	2.03232
39.3736	2.03209
39.4518	2.03183
39.5309	2.03156
39.6111	2.03127
39.6931	2.03096
39.7776	2.03061
39.863	2.03025
39.9506	2.02991
40.0376	2.02959
40.1247	2.02939
40.2125	2.02939
40.3	2.02957
40.3882	2.02992
40.476	2.03032
40.566	2.03085
40.6564	2.0313
40.7468	2.03175
40.8396	2.03218
40.9333	2.03259
41.0296	2.03301
41.1272	2.0334
41.225	2.03377
41.3259	2.03406
41.4271	2.03419
41.5303	2.03414
41.6334	2.03393
41.7375	2.03362
41.8431	2.03329
41.948	2.03296
42.0546	2.03264
42.1621	2.03235
42.2716	2.0321
42.3822	2.03192
42.4908	2.03185
42.6016	2.0319
42.7132	2.03205
42.8248	2.03233
42.9362	2.03263
43.0472	2.03301
43.1598	2.03343
43.2714	2.03385
43.3829	2.0343
43.4964	2.03474
43.6091	2.03512
43.7219	2.03527
43.8356	2.03517
43.9485	2.03484
44.0618	2.03436
44.174	2.03382
44.2843	2.03324
44.3926	2.03264
44.5042	2.03201
44.6133	2.03138
44.7204	2.03075
44.832	2.03011
44.9434	2.02949
45.0554	2.0289
45.1665	2.02833
45.2782	2.02779
45.3888	2.02733
45.4976	2.02705
45.6048	2.02699
45.7129	2.02714
45.8159	2.02749
45.9193	2.02782
46.0212	2.02836
46.1226	2.02896
46.226	2.02959
46.3304	2.03023
46.4342	2.03085
46.5405	2.03144
46.6474	2.03196
46.7569	2.0324
46.8666	2.03275
46.9743	2.03299
47.0827	2.03314
47.1913	2.03319
47.3003	2.03317
47.4094	2.03308
47.5178	2.03294
47.6255	2.0328
47.7328	2.03265
47.84	2.0325
47.9478	2.03237
48.0564	2.03227
48.1661	2.0322
48.2796	2.03213
48.394	2.03207
48.5092	2.03201
48.6238	2.03195
48.7376	2.03188
48.8499	2.03182
48.9608	2.03164
49.0732	2.03153
49.1872	2.03144
49.3003	2.03132
49.4149	2.03097
49.5279	2.03082
49.6402	2.03068
49.7524	2.03056
49.8669	2.03045
49.9786	2.03039
50.0886	2.03035
50.1969	2.03032
50.3015	2.03033
50.4085	2.03039
50.5164	2.03051
50.6244	2.03064
50.7337	2.03081
50.8415	2.03093
50.9461	2.03089
51.0515	2.03066
51.1595	2.03029
51.2669	2.02988
51.3734	2.02934
51.4803	2.02889
51.5829	2.02844
51.6867	2.02801
51.7924	2.02761
51.8985	2.02722
52.0042	2.02687
52.1101	2.02658
52.2154	2.02639
52.3209	2.02638
52.4284	2.02658
52.5374	2.02697
52.6435	2.02748
52.7518	2.02803
52.8616	2.02857
52.9681	2.02915
53.075	2.02973
53.1818	2.03028
53.2892	2.03078
53.3966	2.03117
53.5056	2.03144
53.6158	2.03159
53.7274	2.03159
53.8377	2.03156
53.9526	2.03143
54.0685	2.03123
54.1859	2.03095
54.3031	2.03065
54.417	2.03034
54.5314	2.03002
54.6473	2.02971
54.7615	2.02941
54.8763	2.02912
54.9864	2.02888
55.0955	2.02868
55.2076	2.02853
55.3178	2.02844
55.4282	2.0284
55.5393	2.02841
55.6505	2.02847
55.7627	2.02858
55.8755	2.02872
55.9893	2.02888
56.1042	2.02907
56.2196	2.02928
56.3357	2.02936
56.4504	2.02952
56.5629	2.02963
56.675	2.0297
56.7888	2.02972
56.9019	2.02985
57.0169	2.02982
57.1299	2.02973
57.2461	2.02959
57.3625	2.02944
57.4772	2.0293
57.5926	2.02916
57.708	2.02905
57.823	2.02895
57.9382	2.02886
58.0537	2.0288
58.1685	2.02875
58.2845	2.02869
58.4028	2.02863
58.5234	2.02855
58.6464	2.02847
58.7678	2.02835
58.8852	2.02822
59.0032	2.02805
59.123	2.02789
59.2397	2.02767
59.3597	2.02745
59.4815	2.02723
59.6014	2.02703
59.7212	2.02684
59.8439	2.02669
59.9671	2.02659
60.0948	2.02657
60.2188	2.02658
60.3431	2.02664
60.4647	2.02675
60.5837	2.02697
60.7051	2.0274
60.8286	2.02767
60.9533	2.02796
61.0772	2.02826
61.2017	2.02854
61.3258	2.0288
61.4496	2.02904
61.5754	2.02928
61.6996	2.02949
61.8237	2.02968
61.9486	2.02982
62.0717	2.02991
62.1934	2.02993
62.3144	2.02987
62.4352	2.02978
62.5564	2.02967
62.6778	2.02955
62.7983	2.02941
62.9183	2.02928
63.0372	2.02916
63.1568	2.02907
63.2787	2.02902
63.3983	2.029
63.5172	2.02902
63.6364	2.02905
63.7552	2.02909
63.875	2.02915
63.9968	2.02927
64.1161	2.02935
64.2371	2.02946
64.3578	2.02959
64.4782	2.02976
64.5974	2.02994
64.7163	2.0301
64.8349	2.03023
64.9535	2.03035
65.0711	2.03042
65.1884	2.03048
65.3052	2.03052
65.4218	2.03056
65.538	2.0306
65.6533	2.03062
65.7679	2.03064
65.8827	2.03064
65.997	2.03064
66.1142	2.03065
66.2285	2.03066
66.341	2.0307
66.4545	2.03075
66.5669	2.03082
66.6792	2.03092
66.7917	2.03105
66.905	2.03119
67.0181	2.03135
67.1304	2.03153
67.2442	2.03171
67.3568	2.03189
67.468	2.03205
67.5793	2.03219
67.6907	2.03232
67.8057	2.03245
67.9205	2.03257
68.0344	2.03269
68.1516	2.03294
68.2694	2.03309
68.385	2.03322
68.5018	2.03331
68.6205	2.03336
68.737	2.03329
68.854	2.03322
68.9714	2.03312
69.0905	2.03298
69.2084	2.03281
69.3283	2.03263
69.4504	2.03244
69.5701	2.03226
69.6884	2.03209
69.8061	2.03193
69.9241	2.0318
70.042	2.03168
70.16	2.03158
70.2788	2.03148
70.3966	2.03139
70.5157	2.03129
70.6358	2.03121
70.7551	2.03112
70.8757	2.03104
70.9987	2.03094
71.1218	2.03088
71.2455	2.0308
71.3694	2.0307
71.4932	2.03061
71.6165	2.03051
71.7373	2.03044
71.8608	2.03036
71.9841	2.03021
72.1088	2.03005
72.2297	2.02988
72.3494	2.02966
72.4715	2.0294
72.594	2.0292
72.7151	2.02908
72.833	2.02903
72.9533	2.02905
73.0727	2.02916
73.1906	2.02932
73.3072	2.02956
73.4263	2.02983
73.5443	2.03014
73.6644	2.03046
73.7854	2.03078
73.904	2.0311
74.0214	2.03142
74.1408	2.03175
74.2589	2.0321
74.3777	2.03243
74.4962	2.03277
74.6142	2.0331
74.7335	2.03341
74.8529	2.03369
74.9718	2.03393
75.0913	2.03412
75.2111	2.03427
75.329	2.03438
75.4468	2.03448
75.5658	2.03451
75.6891	2.03449
75.8107	2.03437
75.9291	2.03424
76.0479	2.03403
76.1662	2.03374
76.285	2.03334
76.4063	2.03284
76.5278	2.03226
76.6492	2.03161
76.7692	2.03093
76.8884	2.03025
77.0065	2.02958
77.1263	2.02895
77.244	2.02834
77.3617	2.02778
77.4785	2.0273
77.5937	2.02692
77.7081	2.02667
77.8227	2.02652
77.9356	2.0265
78.0486	2.02658
78.1599	2.02676
78.2695	2.02702
78.3797	2.02732
78.4901	2.0278
78.6002	2.02816
78.7099	2.0285
78.8194	2.02883
78.9293	2.02917
79.0389	2.02945
79.1508	2.02972
79.2632	2.02996
79.3742	2.03012
79.4839	2.0302
79.5941	2.03024
79.7055	2.0302
79.8176	2.03009
79.9296	2.02991
80.044	2.02968
80.1572	2.02943
80.2693	2.02917
80.3839	2.02891
80.5	2.02874
80.6133	2.02852
80.7295	2.02831
80.8441	2.02811
80.9619	2.02791
81.0814	2.02769
81.1983	2.02749
81.3154	2.02729
81.4371	2.02709
81.5608	2.02691
81.6828	2.02676
81.8057	2.02666
81.9298	2.02664
82.0548	2.02672
82.1787	2.02687
82.303	2.0271
82.4247	2.02741
82.5451	2.02774
82.6683	2.02816
82.7925	2.02863
82.9151	2.0291
83.0385	2.02961
83.1608	2.03014
83.2842	2.03066
83.4077	2.03118
83.5326	2.03164
83.6587	2.03207
83.7839	2.03247
83.9067	2.0328
84.0278	2.03307
84.1495	2.03328
84.272	2.03342
84.3925	2.03345
84.5088	2.03334
84.6263	2.0331
84.7474	2.03275
84.867	2.03229
84.9866	2.03176
85.1061	2.03117
85.2235	2.03053
85.341	2.02987
85.4586	2.02925
85.576	2.02867
85.6917	2.02816
85.8083	2.02776
85.9219	2.02743
86.0368	2.0272
86.1518	2.02708
86.267	2.027
86.3818	2.02703
86.4961	2.02711
86.6114	2.02722
86.726	2.02733
86.8399	2.02743
86.955	2.02752
87.0713	2.02759
87.1865	2.02759
87.3018	2.0276
87.4164	2.0276
87.5316	2.02759
87.6467	2.02758
87.7627	2.02756
87.8783	2.02756
87.9912	2.02761
88.103	2.02768
88.2163	2.02783
88.3297	2.02802
88.4422	2.02825
88.5547	2.0285
88.6655	2.02876
88.7765	2.02901
88.8845	2.02927
88.9936	2.02948
89.1031	2.02964
89.2114	2.02971
89.3211	2.02972
89.4316	2.02965
89.5401	2.0295
89.65	2.02926
89.7608	2.02893
89.8691	2.02855
89.9776	2.02814
90.0863	2.02757
90.1922	2.02712
90.2991	2.0267
90.4068	2.0263
90.5149	2.02592
90.6243	2.02562
90.7336	2.0254
90.8433	2.02525
90.9533	2.02521
91.0639	2.02526
91.1742	2.02537
91.2849	2.02556
91.3961	2.0258
91.5079	2.0261
91.6208	2.02643
91.7345	2.02677
91.8482	2.02711
91.9615	2.02745
92.0724	2.02777
92.1825	2.02807
92.294	2.02834
92.4076	2.02858
92.5226	2.0288
92.6371	2.029
92.7515	2.02915
92.8655	2.02928
92.9792	2.0294
93.0931	2.02952
93.2061	2.02961
93.3197	2.02964
93.4333	2.02962
93.547	2.02949
93.6622	2.0293
93.7764	2.02904
93.8902	2.0287
94.004	2.02837
94.12	2.02795
94.2351	2.02749
94.3506	2.02704
94.4672	2.02659
94.5835	2.02615
94.6982	2.02572
94.8138	2.02531
94.93	2.02495
95.0435	2.02466
95.1584	2.02444
95.2741	2.02432
95.3896	2.0243
95.506	2.02438
95.6224	2.02456
95.7391	2.02483
95.8551	2.02518
95.9703	2.02558
96.0857	2.02591
96.2001	2.02638
96.3154	2.02688
96.4304	2.0274
96.5467	2.02792
96.6629	2.02845
96.7795	2.02896
96.8974	2.02943
97.0158	2.02981
97.1338	2.0301
97.2531	2.0303
97.3719	2.03038
97.4936	2.03036
97.6168	2.03028
97.7394	2.03009
97.8631	2.02986
97.9881	2.02963
98.1108	2.02941
98.2323	2.02921
98.3574	2.02905
98.4829	2.02892
98.6085	2.02881
98.7327	2.02871
98.858	2.02863
98.9839	2.02855
99.1101	2.02849
99.2353	2.02843
99.3599	2.02838
99.4855	2.02832
99.6107	2.02829
99.7358	2.02824
99.8607	2.02816
99.9866	2.02809
100.11	2.028
100.235	2.02791
100.359	2.02786
100.482	2.02779
100.604	2.02774
100.726	2.02767
100.848	2.02761
100.97	2.0275
101.091	2.02736
101.211	2.02721
101.331	2.02702
101.449	2.02683
101.569	2.02659
101.687	2.02636
101.805	2.02614
101.924	2.02605
102.042	2.0261
102.16	2.02628
102.278	2.02654
102.397	2.02685
102.516	2.02714
102.635	2.02739
102.754	2.02758
102.874	2.02771
102.994	2.02778
103.115	2.0278
103.236	2.02778
103.357	2.02758
103.479	2.02749
103.601	2.0274
103.723	2.02733
103.846	2.02726
103.97	2.02721
104.095	2.02721
104.22	2.02726
104.345	2.02733
104.471	2.02746
104.597	2.02762
104.725	2.02782
104.854	2.02804
104.984	2.02827
105.114	2.02849
105.244	2.02867
105.372	2.02883
105.5	2.02897
105.63	2.02908
105.759	2.02915
105.889	2.02914
106.019	2.02904
106.15	2.02884
106.28	2.02855
106.411	2.02821
106.542	2.02784
106.674	2.02746
106.803	2.02709
106.932	2.02671
107.06	2.02636
107.186	2.02606
107.31	2.02581
107.436	2.02565
107.563	2.02558
107.687	2.02562
107.812	2.02582
107.937	2.02599
108.065	2.02616
108.191	2.0263
108.317	2.02642
108.443	2.02664
108.57	2.0267
108.696	2.02671
108.821	2.02667
108.948	2.02658
109.076	2.02641
109.204	2.02618
109.331	2.0259
109.462	2.02559
109.592	2.02522
109.722	2.02483
109.852	2.02442
109.983	2.024
110.114	2.02357
110.245	2.02314
110.376	2.02272
110.509	2.02229
110.641	2.02187
110.774	2.02147
110.906	2.02112
111.039	2.02084
111.171	2.02064
111.306	2.02055
111.439	2.02054
111.572	2.02064
111.706	2.02084
111.837	2.02115
111.967	2.02149
112.096	2.02185
112.225	2.02222
112.354	2.02258
112.483	2.02296
112.615	2.02332
112.745	2.02367
112.874	2.02397
113.005	2.02419
113.135	2.02441
113.266	2.02461
113.397	2.02482
113.528	2.02503
113.66	2.02525
113.791	2.0255
113.923	2.02575
114.054	2.02605
114.186	2.02635
114.316	2.02667
114.446	2.02698
114.58	2.02725
114.714	2.02736
114.849	2.02731
114.982	2.02708
115.117	2.02671
115.253	2.02618
115.389	2.02562
115.524	2.02507
115.658	2.02455
115.791	2.02408
115.924	2.02364
116.056	2.02324
116.189	2.02288
116.321	2.02269
116.453	2.02239
116.587	2.02208
116.722	2.02175
116.858	2.02144
116.994	2.0211
117.13	2.02071
117.264	2.02028
117.398	2.01979
117.532	2.01927
117.665	2.01875
117.799	2.01824
117.932	2.01787
118.065	2.01766
118.198	2.01764
118.331	2.01779
118.465	2.01805
118.6	2.01836
118.732	2.01872
118.865	2.01911
118.996	2.01955
119.127	2.02006
119.259	2.02086
119.39	2.02153
119.522	2.02221
119.656	2.02291
119.791	2.02361
119.926	2.02429
120.061	2.0249
120.197	2.02537
120.333	2.02563
120.47	2.02566
120.607	2.02544
120.744	2.02499
120.882	2.02436
121.019	2.02353
121.157	2.02269
121.294	2.02183
121.431	2.02099
121.569	2.02024
121.706	2.0196
121.846	2.01908
121.987	2.01869
122.128	2.01844
122.27	2.01831
122.412	2.01831
122.553	2.01841
122.691	2.0186
122.832	2.01883
122.972	2.01911
123.112	2.0194
123.25	2.01972
123.385	2.02004
123.52	2.02048
123.654	2.02085
123.788	2.02122
123.923	2.02162
124.057	2.02205
124.191	2.02246
124.325	2.02284
124.459	2.02314
124.59	2.02334
124.719	2.0234
124.848	2.02334
124.979	2.02313
125.113	2.02278
125.246	2.02229
125.379	2.02173
125.515	2.02112
125.649	2.0205
125.784	2.01987
125.923	2.01926
126.061	2.01866
126.199	2.01808
126.338	2.01755
126.475	2.01707
126.613	2.01661
126.749	2.01623
126.885	2.01594
127.02	2.01574
127.155	2.01562
127.292	2.01556
127.43	2.01558
127.568	2.01542
127.706	2.01551
127.845	2.01566
127.982	2.01583
128.12	2.01604
128.259	2.01627
128.397	2.01652
128.539	2.01679
128.679	2.01707
128.818	2.01742
128.959	2.01769
129.099	2.01789
129.241	2.01803
129.383	2.01808
129.525	2.01805
129.666	2.01795
129.805	2.01778
129.943	2.01757
130.08	2.01732
130.217	2.01706
130.355	2.01681
130.492	2.01658
130.628	2.01637
130.763	2.01619
130.899	2.01604
131.033	2.01598
131.168	2.01599
131.302	2.01606
131.436	2.01619
131.57	2.01625
131.704	2.01618
131.838	2.01602
131.971	2.01575
132.105	2.01544
132.239	2.01515
132.374	2.01486
132.509	2.01461
132.643	2.01439
132.777	2.01418
132.916	2.01377
133.052	2.01358
133.188	2.01341
133.324	2.01323
133.463	2.01304
133.603	2.01284
133.743	2.01268
133.888	2.01259
134.034	2.01261
134.177	2.01276
134.321	2.01303
134.463	2.01337
134.606	2.01376
134.75	2.01415
134.898	2.01454
135.044	2.01494
135.19	2.0153
135.334	2.01561
135.473	2.01584
135.614	2.01596
135.756	2.01599
135.893	2.01592
136.033	2.01569
136.174	2.01542
136.311	2.01511
136.449	2.01477
136.589	2.01443
136.73	2.01413
136.87	2.01384
137.01	2.01357
137.152	2.01328
137.291	2.01289
137.432	2.01256
137.573	2.01222
137.715	2.01181
137.858	2.01135
138.001	2.01085
138.144	2.01031
138.288	2.00975
138.431	2.00919
138.574	2.00867
138.717	2.00818
138.859	2.00774
138.999	2.00736
139.14	2.00703
139.282	2.00676
139.425	2.00657
139.565	2.00643
139.705	2.00634
139.846	2.00628
139.987	2.00627
140.128	2.00629
140.272	2.00633
140.413	2.00637
140.555	2.00642
140.698	2.00646
140.841	2.00643
140.984	2.00637
141.128	2.00622
141.273	2.00602
141.418	2.00576
141.564	2.00567
141.712	2.0053
141.861	2.00489
142.011	2.00445
142.16	2.00397
142.311	2.00349
142.46	2.00298
142.611	2.00245
142.759	2.00193
142.907	2.00141
143.055	2.00093
143.2	2.00049
143.346	2.00011
143.493	1.99979
143.635	1.99952
143.779	1.99931
143.927	1.99914
144.073	1.999
144.22	1.99889
144.366	1.99878
144.514	1.99865
144.66	1.9985
144.803	1.99823
144.949	1.99802
145.093	1.99778
145.24	1.9975
145.386	1.99715
145.532	1.99676
145.675	1.99631
145.817	1.99579
145.96	1.99521
146.104	1.99455
146.25	1.99385
146.397	1.9931
146.543	1.9923
146.691	1.99151
146.837	1.99069
146.981	1.98985
147.128	1.98899
147.274	1.98809
147.418	1.98714
147.561	1.98613
147.704	1.98507
147.847	1.98396
147.991	1.98278
148.136	1.98153
148.281	1.98023
148.427	1.97886
148.573	1.97743
148.718	1.97592
148.864	1.97433
149.009	1.97265
149.154	1.97091
149.3	1.96909
149.446	1.96721
149.591	1.96529
149.738	1.96332
149.885	1.96133
150.03	1.95933
150.175	1.95731
150.319	1.95529
150.464	1.95335
150.61	1.95133
150.752	1.9493
150.897	1.94726
151.041	1.94521
151.184	1.94312
151.329	1.94105
151.473	1.93898
151.617	1.93695
151.76	1.93494
151.903	1.93297
152.045	1.93103
152.187	1.92915
152.33	1.9273
152.472	1.92549
152.613	1.92369
152.753	1.9219
152.895	1.92011
153.037	1.91831
153.18	1.9165
153.324	1.91466
153.47	1.91279
153.618	1.91086
153.766	1.90895
153.917	1.90693
154.071	1.90485
154.225	1.90273
154.379	1.90056
154.532	1.89833
154.686	1.89604
154.838	1.8937
154.99	1.89131
155.142	1.88883
155.296	1.88626
155.449	1.8836
155.601	1.88081
155.755	1.87794
155.906	1.87494
156.059	1.8718
156.211	1.86852
156.362	1.86509
156.511	1.86148
156.661	1.85771
156.812	1.85377
156.962	1.84969
157.112	1.84547
157.263	1.8411
157.413	1.83661
157.562	1.832
157.711	1.82729
157.861	1.82249
158.009	1.81761
158.156	1.81265
158.302	1.80762
158.45	1.8026
158.595	1.79747
158.739	1.79227
158.885	1.78704
159.029	1.78176
159.173	1.77643
159.318	1.77105
159.461	1.76571
159.603	1.76023
159.745	1.7547
159.889	1.74909
160.033	1.74341
160.179	1.73762
160.324	1.73176
160.469	1.72583
160.614	1.71983
160.759	1.71377
160.902	1.70764
161.045	1.70145
161.188	1.6952
161.332	1.6889
161.473	1.68253
161.615	1.67612
161.759	1.66969
161.9	1.66325
162.04	1.65682
162.182	1.6504
162.324	1.64398
162.467	1.63759
162.61	1.63123
162.755	1.6249
162.901	1.61864
163.048	1.61246
163.195	1.60635
163.344	1.60034
163.493	1.59443
163.643	1.58865
163.793	1.58297
163.942	1.57739
164.09	1.57189
164.239	1.56643
164.387	1.56101
164.536	1.55559
164.682	1.55017
164.83	1.54473
164.976	1.53925
165.123	1.53374
165.269	1.52817
165.417	1.52251
165.566	1.51675
165.715	1.51084
165.865	1.5048
166.016	1.49859
166.166	1.49222
166.315	1.48567
166.465	1.47895
166.612	1.47206
166.76	1.46499
166.909	1.45775
167.058	1.45034
167.207	1.44279
167.358	1.4351
167.507	1.42731
167.656	1.41944
167.802	1.41151
167.947	1.40353
168.091	1.39554
168.234	1.38754
168.376	1.37955
168.518	1.3715
168.659	1.36351
168.8	1.35552
168.941	1.34754
169.081	1.33958
169.223	1.33164
169.365	1.32374
169.507	1.31587
169.651	1.30806
169.794	1.30028
169.939	1.2926
170.083	1.28499
170.228	1.27745
170.374	1.26998
170.519	1.26259
170.665	1.25531
170.811	1.24812
170.955	1.24105
171.1	1.23411
171.246	1.22729
171.394	1.22059
171.543	1.21398
171.693	1.20747
171.844	1.20097
171.996	1.19463
172.15	1.18837
172.303	1.18221
172.458	1.17613
172.613	1.17015
172.769	1.16424
172.925	1.15839
173.082	1.15252
173.237	1.14674
173.392	1.14098
173.547	1.13523
173.7	1.12949
173.854	1.12376
174.005	1.11803
174.156	1.11229
174.307	1.10655
174.456	1.10079
174.605	1.09503
174.752	1.08926
174.899	1.08349
175.046	1.07772
175.193	1.07197
175.34	1.06623
175.486	1.0605
175.632	1.05479
175.777	1.04911
175.921	1.04344
176.064	1.0378
176.205	1.03216
176.346	1.02652
176.486	1.02091
176.627	1.01524
176.766	1.00959
176.907	1.00395
177.046	0.998324
177.185	0.992713
177.324	0.987101
177.463	0.981471
177.602	0.975797
177.738	0.97007
177.874	0.96427
178.008	0.958381
178.143	0.952396
178.277	0.946293
178.41	0.940065
178.542	0.933724
178.674	0.927277
178.808	0.920734
178.941	0.914116
179.077	0.907436
179.214	0.900698
179.352	0.893922
179.49	0.887118
179.628	0.88031
179.765	0.873525
179.903	0.866797
180.04	0.860149
180.176	0.853585
180.313	0.847133
180.451	0.840815
180.591	0.834631
180.729	0.828614
180.867	0.822796
181.006	0.817159
181.142	0.81175
181.28	0.806515
181.418	0.801481
181.554	0.796625
181.689	0.791935
181.82	0.787374
181.949	0.782913
182.078	0.778543
182.206	0.774234
182.334	0.769962
182.461	0.765721
182.587	0.761491
182.712	0.757274
182.837	0.753054
182.963	0.748822
183.091	0.744569
183.222	0.740275
183.355	0.735941
183.49	0.731556
183.626	0.727109
183.763	0.722603
183.9	0.718057
184.038	0.713422
184.177	0.708722
184.316	0.703971
184.454	0.699176
184.593	0.694348
184.731	0.689477
184.869	0.684562
185.005	0.679658
185.141	0.674746
185.278	0.669867
185.414	0.664997
185.55	0.660113
185.688	0.655213
185.824	0.650396
185.96	0.645483
186.098	0.640539
186.236	0.635551
186.375	0.630505
186.513	0.625391
186.647	0.620213
186.781	0.614976
186.913	0.60969
187.044	0.604358
187.175	0.598962
187.31	0.593508
187.444	0.587993
187.58	0.582414
187.718	0.576789
187.857	0.571105
187.998	0.565366
188.141	0.559592
188.286	0.55377
188.431	0.547912
188.58	0.542004
188.731	0.536047
188.883	0.530033
189.033	0.524012
189.184	0.517929
189.334	0.511785
189.483	0.505595
189.632	0.499368
189.78	0.493095
189.929	0.486785
190.078	0.48045
190.228	0.474058
190.379	0.46769
190.528	0.461302
190.677	0.454892
190.825	0.448467
190.971	0.442032
191.116	0.435618
191.261	0.429248
191.405	0.422916
191.548	0.416635
191.691	0.410447
191.834	0.404353
191.976	0.398364
192.119	0.39249
192.264	0.386759
192.41	0.381159
192.554	0.375695
192.698	0.37039
192.842	0.365211
192.987	0.360146
193.132	0.355192
193.277	0.350325
193.419	0.345536
193.559	0.340803
193.696	0.336119
193.828	0.331465
193.956	0.326858
194.082	0.322316
194.207	0.31782
194.334	0.313351
194.462	0.308891
194.592	0.304424
194.723	0.299893
194.856	0.295311
194.989	0.290634
195.123	0.285898
195.257	0.281075
195.392	0.276184
195.529	0.271233
195.665	0.266233
195.8	0.261205
195.935	0.25615
196.07	0.251077
196.201	0.245994
196.336	0.240895
196.471	0.235803
196.605	0.230718
196.74	0.225644
196.875	0.220589
197.013	0.215563
197.154	0.210582
197.295	0.205653
197.439	0.200803
197.583	0.196066
197.728	0.191443
197.869	0.18694
198.012	0.18261
198.153	0.178424
198.295	0.174368
198.437	0.170453
198.58	0.166615
198.722	0.162852
198.865	0.159177
199.008	0.155517
199.15	0.151884
199.294	0.148248
199.438	0.14463
199.583	0.141051
199.728	0.137511
199.874	0.134005
200.017	0.130537
200.163	0.127104
200.307	0.123702
200.449	0.120337
200.593	0.117013
200.736	0.113743
200.88	0.110517
201.024	0.107351
201.17	0.104254
201.317	0.10125
201.464	0.0983455
201.612	0.0955577
201.759	0.0928899
201.906	0.0903564
202.053	0.0879817
202.201	0.0857894
202.349	0.0837915
202.495	0.0819985
202.642	0.0804319
202.789	0.0790564
202.938	0.0778854
203.087	0.0767894
203.236	0.0757809
203.385	0.0749013
203.532	0.0741535
203.679	0.0735082
203.829	0.072963
203.982	0.0725252
204.137	0.0721812
204.293	0.0719211
204.452	0.0717438
204.614	0.0716413
204.776	0.0716005
204.938	0.0716105
205.098	0.0716743
205.255	0.0717602
205.41	0.0718465
205.565	0.0719255
205.718	0.0719806
205.869	0.071997
206.022	0.0719282
206.173	0.0717745
206.324	0.071536
206.474	0.0712192
206.625	0.0708234
206.776	0.0703594
206.929	0.0698293
207.081	0.0692316
207.235	0.0686203
207.388	0.0680364
207.54	0.0674703
207.693	0.0669799
207.845	0.066529
207.996	0.0662038
208.145	0.0659761
208.294	0.0658269
208.441	0.0657028
208.589	0.0655843
208.736	0.065441
208.886	0.0652934
209.035	0.0651367
209.182	0.0649771
209.33	0.0648419
209.478	0.0647263
209.625	0.0646394
209.77	0.0645859
209.916	0.0645796
210.062	0.0646156
210.207	0.0646931
210.352	0.064808
210.495	0.0649419
210.638	0.0650879
210.784	0.0652547
210.929	0.0654324
211.075	0.0656252
211.221	0.0658179
211.365	0.0660186
211.512	0.0662162
211.66	0.0664101
211.809	0.0665885
211.958	0.0667471
212.106	0.0668651
212.255	0.0669539
212.402	0.0669865
212.546	0.0669489
212.691	0.066876
212.836	0.0666863
212.982	0.0664063
213.127	0.0660559
213.273	0.0656343
213.417	0.0652027
213.563	0.0648061
213.711	0.0643502
213.859	0.0639052
214.008	0.0634899
214.156	0.0632366
214.303	0.0631819
214.451	0.0633133
214.599	0.0635749
214.748	0.0638931
214.897	0.06423
215.046	0.064574
215.195	0.064933
215.342	0.065319
215.49	0.0657232
215.636	0.0661546
215.78	0.0666203
215.927	0.0671106
216.07	0.0676333
216.214	0.06817
216.359	0.0687192
216.505	0.0690419
216.649	0.0695564
216.793	0.0700263
216.939	0.0704037
217.084	0.0706462
217.227	0.0707181
217.366	0.0706337
217.505	0.0703882
217.646	0.0700608
217.788	0.069644
217.929	0.0692692
218.072	0.0688747
218.216	0.0684819
218.361	0.0681053
218.505	0.0677725
218.649	0.0674918
218.792	0.067268
218.934	0.0671088
219.076	0.0670188
219.219	0.0669873
219.362	0.0670011
219.501	0.0670442
219.637	0.0671034
219.773	0.0671695
219.911	0.0672357
220.051	0.0673068
220.191	0.0673927
220.333	0.0675049
220.475	0.0676464
220.617	0.0678432
220.759	0.0681029
220.9	0.068413
221.041	0.0688272
221.178	0.0692238
221.317	0.0696567
221.452	0.0701146
221.585	0.0705775
221.717	0.071036
221.852	0.0714637
221.988	0.0718845
222.126	0.0722485
222.267	0.0725708
222.407	0.0727844
222.548	0.0729188
222.69	0.0729806
222.831	0.072998
222.973	0.0729967
223.118	0.0729916
223.263	0.072971
223.409	0.072958
223.555	0.0729279
223.702	0.0728868
223.849	0.0728242
223.997	0.0727398
224.146	0.0726288
224.294	0.0724831
224.442	0.0722993
224.59	0.0720863
224.738	0.0718499
224.886	0.0716085
225.034	0.0713621
225.183	0.0711337
225.333	0.0710341
225.482	0.0710845
225.629	0.0714069
225.777	0.0717267
225.922	0.0721499
226.069	0.0726196
226.215	0.0731101
226.363	0.0736095
226.512	0.074133
226.659	0.0746317
226.809	0.0751164
226.958	0.0755943
227.106	0.076048
227.252	0.0765004
227.399	0.0769581
227.546	0.0774195
227.692	0.0778791
227.839	0.0783441
227.988	0.0787639
228.138	0.0792319
228.289	0.0796872
228.439	0.0800966
228.589	0.0803002
228.74	0.0802357
228.89	0.0799114
229.04	0.0794042
229.19	0.0788343
229.339	0.0782741
229.49	0.0777519
229.641	0.0772641
229.794	0.0768101
229.946	0.0764269
230.096	0.0761359
230.249	0.0759382
230.405	0.0759858
230.561	0.0759254
230.716	0.0759629
230.87	0.0760565
231.021	0.0764081
231.172	0.0765706
231.323	0.0767461
231.473	0.076975
231.621	0.0772733
231.77	0.0776493
231.919	0.0780893
232.071	0.0785529
232.223	0.0790136
232.374	0.0794477
232.526	0.0798468
232.681	0.0802208
232.835	0.0805613
232.988	0.0808509
233.139	0.0810684
233.288	0.0812291
233.437	0.0813188
233.586	0.0813585
233.733	0.0813304
233.881	0.0812798
234.03	0.0812144
234.179	0.0811303
234.327	0.0810092
234.476	0.080887
234.625	0.0807887
234.774	0.0807051
234.924	0.080632
235.073	0.080576
235.224	0.080536
235.375	0.0805478
235.525	0.0806995
235.674	0.0809757
235.825	0.0812763
235.973	0.0817088
236.123	0.0821478
236.271	0.0825575
236.42	0.0829403
236.568	0.0832693
236.717	0.0835363
236.868	0.0837334
237.018	0.0838648
237.17	0.0839604
237.319	0.0840094
237.467	0.0840306
237.613	0.0840352
237.757	0.084035
237.901	0.0840108
238.045	0.0839764
238.188	0.0839465
238.333	0.0839057
238.478	0.0838875
238.623	0.0838639
238.768	0.0838563
238.915	0.0838784
239.062	0.0839642
239.209	0.0841356
239.357	0.0844119
239.504	0.0847865
239.649	0.0852547
239.793	0.085795
239.937	0.0863967
240.079	0.0870916
240.221	0.0875968
240.362	0.0879576
240.503	0.0880658
240.646	0.0882296
240.789	0.0882963
240.932	0.0883382
241.077	0.0883754
241.225	0.0884103
241.371	0.088431
241.517	0.0884508
241.664	0.0884591
241.811	0.0884554
241.957	0.0884276
242.105	0.088367
242.251	0.0882924
242.397	0.0881799
242.543	0.0880323
242.691	0.0878473
242.839	0.0876408
242.988	0.0874066
243.135	0.0871729
243.283	0.0869621
243.434	0.086806
243.586	0.0867347
243.738	0.0867756
243.889	0.0869925
244.041	0.0873757
244.192	0.0878767
244.342	0.0884655
244.489	0.0891136
244.634	0.089774
244.779	0.0903869
244.924	0.0909932
245.068	0.0914317
245.212	0.0916425
245.357	0.0919208
245.5	0.0921712
245.644	0.0924018
245.788	0.0926125
245.929	0.0928231
246.071	0.0930468
246.211	0.0932438
246.351	0.0933691
246.497	0.0933605
246.642	0.0932057
246.786	0.0929748
246.932	0.0927354
247.079	0.0925402
247.226	0.092382
247.372	0.0922567
247.519	0.0921705
247.664	0.0921589
247.81	0.0922247
247.954	0.0923478
248.099	0.0925359
248.243	0.0927775
248.388	0.0930763
248.533	0.0933767
248.678	0.0936858
248.822	0.0940056
248.964	0.0943394
249.104	0.0946861
249.246	0.0950076
249.387	0.0953195
249.531	0.0956186
249.673	0.095998
249.813	0.0962897
249.955	0.0965275
250.099	0.0966474
250.244	0.0966353
250.39	0.0965066
250.539	0.0962982
250.687	0.0960782
250.835	0.0958956
250.98	0.0957478
251.125	0.0956439
251.271	0.0955971
251.415	0.095603
251.56	0.0956537
251.703	0.0957475
251.844	0.0958819
251.983	0.0960366
252.117	0.0962159
252.247	0.0964099
252.379	0.0966374
252.508	0.0968754
252.641	0.097121
252.775	0.097372
252.911	0.097618
253.048	0.097867
253.186	0.098108
253.325	0.0983269
253.464	0.0984971
253.604	0.0986028
253.745	0.0986277
253.886	0.0985789
254.027	0.0984682
254.17	0.0983146
254.313	0.0981339
254.455	0.0978632
254.597	0.0977316
254.737	0.097649
254.879	0.0976285
255.022	0.0976
255.165	0.0976379
255.31	0.0977036
255.455	0.0978075
255.599	0.0979415
255.742	0.0981166
255.886	0.0983167
256.029	0.0985429
256.174	0.098809
256.317	0.0991106
256.462	0.0994491
256.607	0.099811
256.75	0.10022
256.892	0.100636
257.029	0.101092
257.16	0.101558
257.288	0.10205
257.415	0.102541
257.543	0.10302
257.674	0.103492
257.805	0.103946
257.935	0.104351
258.066	0.104616
258.198	0.104701
258.33	0.104605
258.464	0.104358
258.6	0.104019
258.737	0.103633
258.878	0.103231
259.019	0.102642
259.162	0.102269
259.308	0.10193
259.456	0.101712
259.606	0.101525
259.753	0.101389
259.9	0.101329
260.045	0.101326
260.191	0.101357
260.338	0.101436
260.482	0.101596
260.625	0.1019
260.767	0.102354
260.909	0.102901
261.053	0.103446
261.194	0.103952
261.332	0.10439
261.474	0.104769
261.617	0.105105
261.761	0.105369
261.905	0.105563
262.048	0.105685
262.194	0.105751
262.342	0.10576
262.492	0.10578
262.642	0.105746
262.796	0.105713
262.944	0.105683
263.094	0.105679
263.241	0.105689
263.387	0.105738
263.532	0.105819
263.676	0.105924
263.818	0.10597
263.961	0.105952
264.104	0.106135
264.246	0.10632
264.387	0.106534
264.528	0.1068
264.67	0.107078
264.811	0.10735
264.951	0.107602
265.09	0.107841
265.229	0.108044
265.37	0.108208
265.513	0.108337
265.655	0.108439
265.797	0.108507
265.94	0.10856
266.083	0.10861
266.228	0.108642
266.374	0.108675
266.52	0.108704
266.665	0.10874
266.81	0.108779
266.953	0.10884
267.095	0.108906
267.237	0.108998
267.381	0.109118
267.525	0.109279
267.674	0.109471
267.827	0.109701
267.984	0.10997
268.141	0.110278
268.295	0.110621
268.447	0.110977
268.596	0.111341
268.745	0.111708
268.894	0.112072
269.041	0.112339
269.188	0.112569
269.337	0.112771
269.484	0.112944
269.631	0.113096
269.776	0.11321
269.921	0.113303
270.066	0.11336
270.209	0.11341
270.351	0.113438
270.492	0.113434
270.636	0.113399
270.782	0.113334
270.93	0.113236
271.078	0.113095
271.226	0.112956
271.372	0.112777
271.518	0.112582
271.666	0.112381
271.814	0.112177
271.959	0.111992
272.108	0.111812
272.26	0.111677
272.411	0.111606
272.563	0.111636
272.713	0.111782
272.862	0.112071
273.01	0.112471
273.157	0.112954
273.302	0.113506
273.448	0.114121
273.595	0.11489
273.743	0.115549
273.895	0.11623
274.048	0.116784
274.198	0.117273
274.346	0.117678
274.493	0.118016
274.642	0.118287
274.791	0.11852
274.94	0.118727
275.089	0.118888
275.239	0.118976
275.389	0.118946
275.54	0.118786
275.689	0.118566
275.837	0.118348
275.985	0.118197
276.133	0.11809
276.281	0.118013
276.43	0.11796
276.578	0.117956
276.723	0.118002
276.865	0.118098
277.008	0.118254
277.148	0.118405
277.286	0.118632
277.425	0.118882
277.563	0.119162
277.697	0.119464
277.827	0.119757
277.952	0.120049
278.072	0.120311
278.194	0.120554
278.317	0.120748
278.446	0.121072
278.578	0.121144
278.711	0.121377
278.845	0.121385
278.982	0.121365
279.121	0.121337
279.26	0.121309
279.402	0.121299
279.545	0.121321
279.688	0.121391
279.833	0.121517
279.977	0.121675
280.119	0.121874
280.26	0.122126
280.402	0.122397
280.545	0.122667
280.688	0.122958
280.829	0.123244
280.968	0.123527
281.108	0.123803
281.249	0.124073
281.389	0.124326
281.529	0.124561
281.668	0.124765
281.806	0.124939
281.946	0.125066
282.083	0.125155
282.216	0.125181
282.347	0.125155
282.478	0.125079
282.61	0.12495
282.744	0.124809
282.88	0.124655
283.016	0.124503
283.154	0.12434
283.292	0.124277
283.431	0.124242
283.57	0.124252
283.709	0.124327
283.845	0.124461
283.973	0.12466
284.098	0.124913
284.221	0.125212
284.34	0.125547
284.458	0.125923
284.58	0.126311
284.709	0.126701
284.842	0.127099
284.976	0.1275
285.111	0.127907
285.247	0.12829
285.381	0.128637
285.516	0.128905
285.652	0.129053
285.79	0.129133
285.928	0.129191
286.068	0.12926
286.208	0.129316
286.349	0.129367
286.49	0.129385
286.63	0.129405
286.769	0.129412
286.914	0.129439
287.06	0.129451
287.207	0.129536
287.355	0.12965
287.505	0.129772
287.653	0.129898
287.8	0.129974
287.95	0.13009
288.105	0.130176
288.264	0.130237
288.424	0.13025
288.583	0.13024
288.74	0.130185
288.89	0.130102
289.038	0.130029
289.185	0.130001
289.331	0.13007
289.474	0.130257
289.617	0.130504
289.759	0.130752
289.9	0.130992
290.038	0.131225
290.172	0.131447
290.306	0.131672
290.44	0.131876
290.574	0.132076
290.707	0.132266
290.842	0.132446
290.973	0.132626
291.104	0.132802
291.237	0.13293
291.37	0.133075
291.502	0.133145
291.632	0.133208
291.76	0.133271
291.886	0.133369
292.009	0.133507
292.13	0.133686
292.248	0.133934
292.368	0.134267
292.491	0.134421
292.617	0.134775
292.743	0.135134
292.869	0.135464
292.993	0.135757
293.115	0.136004
293.236	0.136199
293.354	0.13631
293.473	0.136326
293.592	0.136283
293.711	0.136173
293.831	0.136002
293.953	0.135799
294.081	0.135601
294.211	0.135403
294.343	0.135227
294.478	0.135062
294.612	0.134916
294.741	0.134795
294.863	0.134688
294.98	0.134644
295.094	0.134627
295.203	0.134674
295.309	0.134813
295.414	0.135033
295.514	0.135342
295.612	0.135733
295.707	0.136175
295.797	0.13666
295.88	0.137166
295.96	0.137664
296.036	0.13813
296.111	0.138542
296.186	0.13894
296.262	0.139222
296.338	0.139451
296.416	0.139596
296.494	0.139653
296.573	0.139673
296.65	0.139632
296.727	0.139538
296.805	0.139396
296.882	0.139205
296.958	0.138989
297.035	0.138759
297.112	0.138523
297.191	0.138283
297.268	0.138036
297.345	0.137803
297.418	0.137613
297.488	0.137522
297.557	0.137556
297.626	0.137677
297.694	0.137832
297.76	0.138002
297.826	0.138206
297.891	0.138437
297.957	0.138734
298.021	0.139184
298.083	0.139501
298.144	0.139742
298.205	0.139985
298.264	0.140146
298.326	0.140265
298.388	0.140353
298.446	0.140427
298.503	0.14048
298.558	0.140521
298.613	0.140551
298.671	0.140586
298.727	0.140626
298.783	0.140692
298.84	0.140785
298.897	0.140905
298.954	0.141042
299.01	0.141201
299.064	0.141372
299.115	0.141547
299.162	0.14172
299.203	0.141883
299.237	0.142022
299.267	0.142136
299.295	0.14221
299.321	0.142243
299.348	0.142233
299.376	0.142182
299.405	0.142102
299.435	0.141966
299.468	0.141806
299.505	0.141627
299.544	0.141492
299.585	0.141346
299.627	0.141284
299.67	0.14128
299.714	0.141308
299.758	0.141357
299.8	0.141404
299.844	0.141467
299.887	0.141504
299.931	0.141521
299.978	0.141534
300.025	0.141555
300.073	0.141548
300.125	0.14154
300.183	0.141539
300.241	0.141536
300.301	0.141531
300.362	0.141544
300.418	0.14156
300.472	0.14162
300.523	0.141709
300.571	0.141831
300.617	0.141993
300.662	0.142171
300.708	0.14235
300.753	0.142519
300.797	0.142686
300.841	0.142842
300.883	0.142993
300.926	0.143156
300.968	0.143296
301.011	0.143459
301.055	0.143612
301.1	0.143718
301.144	0.143795
301.188	0.143831
301.229	0.143854
301.269	0.14384
301.304	0.143799
301.338	0.143726
301.37	0.143659
301.402	0.143606
301.433	0.14355
301.464	0.14341
301.497	0.143395
301.53	0.143376
301.561	0.143372
301.589	0.143383
301.618	0.143377
301.646	0.143394
301.677	0.143429
301.713	0.143472
301.752	0.143529
301.791	0.143604
301.828	0.143688
301.865	0.14378
301.901	0.143876
301.935	0.14398
301.968	0.144094
302.002	0.144171
302.036	0.144281
302.068	0.14439
302.096	0.144508
302.122	0.144639
302.153	0.144772
302.19	0.144879
302.229	0.144968
302.268	0.145014
302.305	0.144863
302.339	0.144833
302.373	0.144836
302.409	0.144821
302.444	0.144797
302.48	0.144738
302.514	0.144675
302.547	0.144601
302.578	0.144523
302.608	0.144453
302.636	0.144382
302.667	0.14433
302.699	0.14429
302.732	0.144245
302.765	0.144214
302.799	0.144192
302.833	0.14418
302.863	0.144169
302.894	0.144157
302.921	0.144144
302.944	0.144145
302.967	0.144151
302.989	0.144176
303.015	0.144215
303.04	0.144276
303.069	0.144351
303.098	0.144479
303.127	0.144639
303.156	0.14485
303.182	0.145095
303.205	0.145368
303.228	0.145652
303.249	0.14595
303.267	0.146237
303.287	0.146516
303.306	0.146736
303.324	0.146931
303.342	0.14708
303.359	0.147194
303.372	0.147272
303.382	0.147324
303.392	0.147359
303.396	0.147368
303.397	0.147363
303.399	0.147361
303.406	0.147341
303.415	0.147308
303.426	0.147283
303.439	0.147244
303.453	0.147205
303.468	0.147223
303.479	0.147181
303.489	0.147142
303.5	0.147129
303.515	0.147066
303.53	0.146987
303.545	0.1469
303.56	0.146826
303.575	0.146766
303.591	0.146739
303.606	0.146722
303.623	0.146727
303.641	0.146745
303.661	0.146758
303.681	0.14679
303.701	0.146818
303.719	0.146821
303.738	0.146806
303.759	0.146741
303.785	0.146664
303.816	0.146573
303.846	0.146463
303.877	0.146333
303.909	0.146193
303.942	0.145916
303.976	0.145839
304.009	0.145684
304.041	0.145552
304.07	0.145443
304.097	0.145368
304.12	0.14532
304.141	0.145288
304.161	0.145273
304.181	0.145291
304.202	0.145334
304.222	0.145395
304.24	0.145489
304.251	0.145602
304.258	0.145748
304.263	0.145931
304.267	0.146144
304.273	0.146424
304.281	0.146706
304.289	0.147024
304.3	0.147367
304.315	0.147721
304.331	0.148078
304.346	0.148452
304.361	0.1488
304.375	0.149304
304.386	0.149558
304.396	0.149777
304.405	0.149963
304.413	0.150109
304.425	0.150224
304.438	0.150322
304.451	0.150382
304.465	0.150422
304.48	0.150451
304.491	0.15045
304.5	0.150452
304.503	0.150414
304.506	0.150337
304.509	0.150212
304.514	0.150014
304.521	0.149752
304.529	0.149459
304.544	0.14917
304.564	0.1489
304.585	0.14866
304.606	0.148439
304.628	0.148263
304.649	0.148143
304.667	0.148112
304.682	0.148172
304.699	0.148364
304.717	0.148627
304.736	0.148926
304.755	0.149253
304.772	0.149574
304.787	0.149849
304.802	0.15007
304.816	0.150216
304.829	0.150283
304.841	0.150257
304.852	0.150174
304.862	0.150006
304.872	0.149771
304.882	0.149488
304.893	0.149158
304.905	0.148812
304.92	0.148473
304.934	0.148158
304.948	0.147863
304.963	0.147594
304.975	0.147367
304.986	0.147186
304.995	0.147048
305.003	0.146844
305.011	0.146882
305.019	0.146966
305.025	0.147164
305.029	0.147427
305.032	0.147742
305.034	0.14812
305.038	0.148531
305.041	0.148955
305.041	0.149386
305.041	0.149813
305.043	0.150223
305.045	0.150615
305.05	0.150961
305.059	0.151248
305.073	0.15147
305.086	0.151581
305.097	0.151604
305.105	0.151563
305.108	0.151456
305.108	0.151302
305.11	0.151118
305.11	0.15093
305.109	0.150749
305.107	0.150584
305.106	0.15034
305.105	0.150364
305.108	0.150247
305.113	0.150197
305.12	0.1502
305.129	0.150213
305.138	0.150253
305.149	0.150314
305.161	0.150379
305.174	0.15046
305.189	0.150537
305.207	0.150625
305.23	0.150714
305.258	0.150795
305.287	0.150875
305.311	0.150949
305.335	0.151012
305.359	0.151085
305.381	0.151155
305.401	0.151215
305.419	0.151254
305.436	0.151261
305.45	0.151249
305.462	0.15121
305.475	0.151126
305.49	0.150969
305.508	0.150658
305.527	0.150558
305.546	0.150448
305.566	0.150343
305.586	0.150221
305.606	0.150071
305.623	0.149901
305.639	0.149724
305.652	0.149529
305.664	0.149317
305.675	0.149098
305.685	0.148876
305.692	0.148665
305.698	0.148497
305.705	0.148382
305.713	0.148341
305.722	0.14839
305.73	0.148488
305.739	0.148583
305.748	0.14873
305.756	0.148926
305.766	0.149182
305.777	0.149481
305.787	0.149814
305.795	0.150138
305.801	0.150467
305.807	0.150738
305.816	0.150942
305.826	0.151098
305.838	0.151154
305.851	0.151161
305.861	0.151143
305.871	0.151089
305.884	0.151005
305.895	0.150901
305.906	0.150807
305.918	0.150712
305.931	0.150623
305.944	0.150558
305.958	0.150512
305.974	0.15049
305.99	0.150473
306.01	0.150471
306.031	0.150471
306.045	0.150464
306.053	0.150466
306.059	0.150479
306.065	0.150511
306.072	0.150413
306.076	0.150601
306.079	0.150627
306.075	0.15066
306.065	0.150715
306.052	0.15078
306.041	0.150823
306.03	0.150863
306.016	0.150907
306.002	0.150957
305.989	0.151012
305.978	0.15105
305.967	0.15108
305.955	0.151089
305.944	0.15106
305.937	0.150995
305.935	0.15091
305.936	0.150839
305.939	0.150777
305.946	0.150719
305.955	0.150682
305.965	0.150658
305.976	0.150652
305.987	0.150663
305.999	0.15068
306.011	0.150814
306.021	0.150917
306.031	0.150924
306.04	0.150971
306.05	0.151035
306.057	0.151112
306.057	0.151193
306.053	0.151261
306.047	0.151313
306.042	0.151358
306.038	0.151394
306.029	0.151438
306.016	0.151477
305.997	0.151523
305.977	0.151572
305.958	0.151622
305.941	0.151672
305.928	0.151735
305.915	0.151794
305.903	0.151831
305.892	0.151852
305.883	0.151842
305.874	0.151801
305.867	0.151724
305.861	0.151621
305.857	0.151579
305.855	0.151516
305.856	0.151388
305.857	0.151257
305.857	0.151113
305.855	0.150966
305.851	0.150843
305.849	0.150732
305.846	0.150647
305.842	0.150579
305.839	0.150528
305.84	0.150507
305.841	0.15051
305.84	0.150528
305.836	0.150574
305.831	0.150643
305.827	0.150736
305.824	0.150839
305.825	0.150954
305.825	0.151126
305.828	0.151371
305.839	0.151626
305.854	0.151887
305.871	0.152154
305.89	0.152403
305.908	0.152621
305.928	0.152796
305.95	0.152871
305.976	0.152901
306.005	0.152897
306.036	0.152864
306.065	0.15281
306.093	0.152743
306.121	0.152659
306.146	0.152571
306.169	0.152467
306.191	0.152354
306.211	0.152226
306.231	0.152091
306.248	0.151966
306.262	0.151848
306.273	0.151765
306.283	0.151701
306.292	0.151662
306.301	0.151624
306.31	0.151598
306.32	0.151605
306.328	0.15164
306.337	0.151699
306.346	0.151773
306.354	0.15202
306.364	0.152149
306.374	0.152312
306.383	0.152527
306.39	0.152698
306.397	0.152843
306.411	0.152953
306.428	0.153052
306.447	0.153118
306.468	0.153148
306.489	0.15312
306.513	0.153031
306.544	0.152894
306.58	0.359374
306.62	0.359319
306.659	0.359393
306.696	0.359605
306.729	0.359907
306.759	0.360291
306.787	0.360737
306.81	0.361209
306.829	0.361695
306.847	0.362157
306.862	0.362577
306.878	0.36289
306.891	0.363001
306.904	0.363169
306.917	0.363255
306.932	0.363255
306.951	0.363157
306.971	0.362952
306.992	0.362678
307.013	0.362366
307.034	0.362031
307.055	0.361681
307.075	0.361333
307.09	0.360977
307.104	0.36065
307.117	0.360369
307.132	0.360155
307.146	0.360013
307.158	0.359942
307.171	0.359927
307.18	0.359948
307.189	0.360012
307.198	0.360109
307.205	0.360252
307.213	0.360429
307.221	0.360625
307.228	0.360834
307.233	0.361017
307.236	0.361273
307.238	0.361506
307.24	0.361717
307.242	0.361875
307.242	0.361983
307.24	0.36204
307.238	0.362055
307.237	0.362025
307.237	0.361985
307.238	0.361964
307.238	0.361944