Temperature Strain
307.38	0.252202
307.381	0.252202
307.382	0.25206
307.384	0.251815
307.385	0.251481
307.384	0.251092
307.383	0.250644
307.38	0.25014
307.373	0.249598
307.365	0.249048
307.358	0.24858
307.351	0.248355
307.342	0.248213
307.334	0.248161
307.325	0.248146
307.316	0.248129
307.308	0.248192
307.298	0.248345
307.285	0.248598
307.268	0.248946
307.25	0.249354
307.231	0.249781
307.21	0.250203
307.192	0.250557
307.173	0.250841
307.154	0.251042
307.134	0.251178
307.114	0.25126
307.089	0.251307
307.062	0.251343
307.034	0.251318
307.003	0.251249
306.969	0.251115
306.932	0.250907
306.891	0.250634
306.848	0.250335
306.802	0.250036
306.752	0.249711
306.701	0.249421
306.651	0.249185
306.6	0.249021
306.547	0.248923
306.494	0.24887
306.442	0.248807
306.391	0.248744
306.34	0.248649
306.289	0.248527
306.239	0.248416
306.19	0.248294
306.145	0.248279
306.098	0.248431
306.051	0.248552
306.004	0.248658
305.955	0.248545
305.904	0.248261
305.851	0.247921
305.798	0.247496
305.743	0.24701
305.689	0.246497
305.636	0.245946
305.581	0.24541
305.522	0.244887
305.46	0.244374
305.398	0.24387
305.333	0.243369
305.269	0.242869
305.203	0.24244
305.135	0.242046
305.067	0.242009
304.999	0.242143
304.931	0.242484
304.863	0.242932
304.794	0.24344
304.726	0.244023
304.653	0.244598
304.579	0.245148
304.503	0.245666
304.426	0.246131
304.348	0.246541
304.271	0.246881
304.194	0.247137
304.114	0.247261
304.032	0.247242
303.947	0.247054
303.861	0.246694
303.775	0.246213
303.686	0.245656
303.596	0.245078
303.506	0.244486
303.413	0.243881
303.319	0.243304
303.225	0.242775
303.131	0.242298
303.038	0.241944
302.948	0.241716
302.856	0.241601
302.766	0.241553
302.674	0.241573
302.583	0.241651
302.491	0.241814
302.398	0.242065
302.304	0.242389
302.211	0.24277
302.118	0.243158
302.028	0.243554
301.938	0.243936
301.848	0.244245
301.761	0.244608
301.676	0.244963
301.593	0.245263
301.511	0.245427
301.431	0.245299
301.353	0.245028
301.274	0.244599
301.194	0.244067
301.114	0.243514
301.032	0.242913
300.947	0.24231
300.853	0.241712
300.755	0.241116
300.653	0.240536
300.551	0.239954
300.45	0.239408
300.348	0.238957
300.244	0.238688
300.139	0.238737
300.028	0.238902
299.914	0.239276
299.793	0.239734
299.667	0.240227
299.532	0.240748
299.395	0.241263
299.259	0.24174
299.128	0.242201
298.999	0.242622
298.875	0.242958
298.755	0.243201
298.637	0.243322
298.518	0.243296
298.401	0.243108
298.283	0.242745
298.166	0.242247
298.048	0.241684
297.93	0.241111
297.811	0.240406
297.69	0.239863
297.566	0.239289
297.44	0.238733
297.313	0.238223
297.188	0.237826
297.064	0.237552
296.943	0.237414
296.822	0.237377
296.704	0.237418
296.584	0.237439
296.462	0.237535
296.337	0.237695
296.206	0.237922
296.075	0.238202
295.939	0.238537
295.801	0.238884
295.668	0.239225
295.537	0.239563
295.408	0.239695
295.283	0.240024
295.163	0.240315
295.042	0.240561
294.923	0.24076
294.804	0.240634
294.685	0.240359
294.567	0.239925
294.448	0.239425
294.33	0.238862
294.212	0.238248
294.094	0.237638
293.98	0.237023
293.867	0.236413
293.755	0.235828
293.64	0.235277
293.523	0.234786
293.404	0.234365
293.283	0.234137
293.161	0.234064
293.036	0.23432
292.912	0.234745
292.787	0.235236
292.661	0.235749
292.534	0.236256
292.41	0.236811
292.284	0.237324
292.157	0.237783
292.034	0.238162
291.911	0.238412
291.794	0.238469
291.678	0.238321
291.56	0.237982
291.439	0.237496
291.315	0.236953
291.19	0.236417
291.062	0.235876
290.933	0.23534
290.809	0.234826
290.687	0.23433
290.569	0.23384
290.457	0.233378
290.353	0.233029
290.252	0.232923
290.152	0.232879
290.049	0.232914
289.943	0.232998
289.831	0.233111
289.711	0.233275
289.589	0.233487
289.465	0.233763
289.344	0.234111
289.222	0.234499
289.104	0.234864
288.984	0.235165
288.865	0.235394
288.745	0.235539
288.625	0.235587
288.509	0.235624
288.393	0.23556
288.276	0.235481
288.159	0.235313
288.04	0.234947
287.919	0.234595
287.795	0.234143
287.666	0.233672
287.535	0.233187
287.405	0.232687
287.278	0.232192
287.16	0.231697
287.049	0.231185
286.946	0.230706
286.845	0.230263
286.741	0.2299
286.635	0.229659
286.523	0.229607
286.406	0.229736
286.281	0.230046
286.154	0.230481
286.026	0.230952
285.897	0.231449
285.769	0.232077
285.639	0.23254
285.51	0.233034
285.379	0.233482
285.248	0.23383
285.118	0.234024
284.987	0.233992
284.854	0.233736
284.721	0.233298
284.592	0.232751
284.464	0.232229
284.338	0.231688
284.214	0.231163
284.09	0.230642
283.967	0.230125
283.844	0.229551
283.721	0.22904
283.599	0.228604
283.479	0.228304
283.358	0.228353
283.238	0.228338
283.121	0.228403
283.002	0.228511
282.887	0.228661
282.772	0.228843
282.655	0.229075
282.54	0.229347
282.427	0.22966
282.311	0.229985
282.193	0.230297
282.075	0.230526
281.957	0.230679
281.84	0.230735
281.722	0.230706
281.604	0.230525
281.487	0.230425
281.371	0.230351
281.254	0.230215
281.134	0.23005
281.014	0.229669
280.892	0.229228
280.773	0.228744
280.658	0.228234
280.542	0.227709
280.426	0.227129
280.306	0.226573
280.185	0.226061
280.061	0.225608
279.935	0.225255
279.81	0.225034
279.688	0.224986
279.562	0.225102
279.436	0.225395
279.309	0.225801
279.185	0.226224
279.062	0.226666
278.939	0.227115
278.817	0.227575
278.696	0.227982
278.579	0.228371
278.461	0.228692
278.342	0.228859
278.224	0.228782
278.103	0.228533
277.979	0.228111
277.852	0.227577
277.722	0.226974
277.592	0.226351
277.461	0.225718
277.332	0.225104
277.206	0.224502
277.082	0.224083
276.959	0.223505
276.835	0.223028
276.707	0.222714
276.58	0.22265
276.452	0.222843
276.323	0.22313
276.191	0.223556
276.056	0.223985
275.916	0.224401
275.778	0.224778
275.641	0.225097
275.501	0.225371
275.361	0.225579
275.22	0.225714
275.081	0.225772
274.943	0.225746
274.805	0.225641
274.666	0.225462
274.53	0.225311
274.393	0.225112
274.255	0.224883
274.113	0.224657
273.971	0.22436
273.828	0.224001
273.682	0.223581
273.534	0.223108
273.386	0.222627
273.24	0.222118
273.096	0.221603
272.953	0.221081
272.811	0.220602
272.671	0.220185
272.528	0.219879
272.379	0.219698
272.227	0.219667
272.073	0.219793
271.918	0.220053
271.765	0.220314
271.613	0.220718
271.46	0.221147
271.307	0.22157
271.157	0.221993
271.008	0.222416
270.86	0.222871
270.714	0.223233
270.57	0.223464
270.429	0.223487
270.289	0.223283
270.153	0.222846
270.019	0.222291
269.888	0.221668
269.759	0.221024
269.63	0.220386
269.497	0.219753
269.366	0.219137
269.235	0.218518
269.1	0.217957
268.96	0.217445
268.817	0.217105
268.677	0.216998
268.537	0.217169
268.397	0.217466
268.256	0.217951
268.119	0.218358
267.986	0.218772
267.854	0.219154
267.725	0.219496
267.599	0.219813
267.473	0.220058
267.348	0.220248
267.221	0.220369
267.089	0.22041
266.956	0.220363
266.819	0.220247
266.677	0.220027
266.531	0.219774
266.386	0.21949
266.239	0.219193
266.091	0.218857
265.944	0.218493
265.797	0.218094
265.651	0.217654
265.505	0.217206
265.358	0.216747
265.211	0.216275
265.059	0.215779
264.911	0.215323
264.764	0.214875
264.615	0.214456
264.468	0.214075
264.323	0.213777
264.18	0.213596
264.041	0.213567
263.903	0.213724
263.766	0.214032
263.628	0.214435
263.494	0.214897
263.362	0.215367
263.228	0.215849
263.094	0.216162
262.961	0.216672
262.829	0.217124
262.695	0.217447
262.561	0.217546
262.424	0.217375
262.287	0.217032
262.15	0.216529
262.019	0.21589
261.894	0.215186
261.771	0.214484
261.652	0.213819
261.533	0.213181
261.412	0.212735
261.289	0.21223
261.165	0.211829
261.04	0.211542
260.91	0.211407
260.781	0.211458
260.654	0.211618
260.525	0.211938
260.397	0.212323
260.272	0.212692
260.145	0.213048
260.012	0.21338
259.877	0.213699
259.741	0.213969
259.604	0.214196
259.467	0.214362
259.334	0.214463
259.203	0.214487
259.075	0.21438
258.948	0.214016
258.825	0.213668
258.703	0.21325
258.58	0.212805
258.455	0.212356
258.328	0.211925
258.206	0.211578
258.082	0.21114
257.958	0.210683
257.831	0.210225
257.703	0.209771
257.572	0.20932
257.442	0.20888
257.315	0.208474
257.19	0.208112
257.071	0.207848
256.954	0.207708
256.839	0.207716
256.729	0.207874
256.621	0.208127
256.512	0.208544
256.404	0.208959
256.293	0.209407
256.183	0.209871
256.071	0.210363
255.96	0.210808
255.851	0.211225
255.747	0.211517
255.642	0.211612
255.54	0.211447
255.435	0.211143
255.329	0.210712
255.224	0.21018
255.113	0.209568
255	0.208935
254.881	0.20831
254.76	0.207699
254.636	0.20712
254.51	0.206577
254.385	0.206117
254.259	0.205756
254.13	0.205551
254.002	0.20555
253.877	0.205762
253.751	0.206107
253.628	0.206498
253.504	0.206879
253.382	0.207248
253.261	0.20759
253.144	0.207878
253.028	0.20813
252.911	0.208335
252.797	0.208501
252.684	0.208619
252.568	0.208679
252.45	0.208537
252.33	0.20849
252.208	0.208363
252.085	0.208206
251.966	0.208025
251.85	0.207837
251.73	0.20761
251.609	0.20731
251.49	0.206929
251.369	0.206478
251.243	0.205992
251.116	0.205496
250.992	0.204998
250.867	0.20452
250.739	0.20406
250.61	0.203634
250.478	0.203272
250.343	0.203026
250.207	0.202894
250.067	0.202899
249.929	0.203039
249.793	0.203297
249.658	0.203634
249.519	0.204008
249.384	0.204374
249.248	0.20478
249.11	0.205048
248.97	0.205435
248.833	0.205757
248.698	0.205971
248.561	0.206017
248.422	0.205871
248.277	0.205505
248.125	0.204986
247.972	0.204402
247.82	0.203787
247.668	0.20318
247.522	0.202585
247.376	0.201928
247.236	0.201409
247.098	0.200955
246.962	0.200617
246.826	0.200394
246.689	0.200332
246.557	0.200443
246.429	0.200832
246.302	0.201181
246.176	0.201567
246.051	0.201942
245.928	0.20226
245.807	0.20252
245.685	0.202763
245.563	0.202966
245.439	0.203132
245.314	0.203331
245.191	0.203347
245.068	0.203349
244.947	0.20329
244.828	0.203166
244.706	0.203009
244.584	0.202825
244.462	0.202602
244.338	0.202355
244.212	0.202062
244.084	0.201768
243.951	0.20136
243.815	0.200981
243.679	0.200606
243.54	0.200218
243.393	0.199822
243.242	0.199456
243.086	0.19911
242.929	0.198779
242.77	0.198425
242.616	0.1982
242.463	0.198051
242.316	0.198014
242.176	0.198093
242.037	0.198302
241.895	0.198515
241.748	0.198748
241.6	0.198975
241.454	0.199193
241.305	0.199418
241.158	0.199609
241.017	0.199752
240.877	0.199802
240.74	0.19972
240.605	0.199481
240.474	0.199105
240.346	0.198674
240.217	0.198223
240.091	0.197644
239.964	0.197235
239.838	0.196822
239.713	0.196466
239.586	0.196184
239.457	0.195996
239.331	0.19589
239.202	0.195877
239.076	0.196073
238.95	0.196186
238.825	0.196372
238.698	0.196575
238.57	0.196758
238.442	0.196884
238.32	0.196972
238.203	0.197012
238.085	0.197017
237.966	0.196989
237.842	0.196923
237.713	0.197025
237.579	0.196876
237.446	0.196698
237.306	0.1965
237.167	0.196297
237.027	0.196071
236.887	0.195834
236.745	0.195604
236.603	0.195372
236.459	0.195154
236.316	0.194959
236.173	0.194768
236.029	0.194579
235.881	0.194403
235.731	0.194211
235.58	0.194034
235.428	0.19386
235.279	0.193711
235.132	0.193616
234.985	0.193609
234.837	0.193636
234.689	0.193741
234.542	0.193889
234.398	0.194042
234.255	0.194216
234.115	0.194397
233.977	0.194559
233.842	0.194749
233.706	0.19481
233.576	0.194809
233.446	0.19474
233.317	0.194612
233.188	0.194396
233.063	0.194101
232.941	0.193763
232.821	0.193406
232.701	0.193036
232.583	0.192679
232.462	0.1922
232.338	0.191899
232.209	0.191605
232.073	0.191339
231.931	0.191115
231.788	0.190851
231.645	0.19079
231.501	0.190731
231.354	0.190724
231.207	0.190767
231.057	0.190838
230.905	0.190891
230.755	0.190922
230.603	0.190914
230.447	0.190867
230.287	0.190753
230.126	0.190602
229.966	0.190383
229.806	0.190123
229.647	0.189858
229.49	0.18962
229.333	0.189376
229.177	0.189132
229.022	0.188914
228.868	0.188766
228.715	0.188561
228.56	0.188385
228.404	0.188214
228.247	0.188057
228.088	0.187848
227.929	0.187675
227.769	0.187496
227.606	0.187327
227.44	0.187066
227.28	0.186902
227.121	0.186772
226.967	0.186683
226.816	0.186623
226.667	0.186617
226.516	0.186651
226.37	0.186712
226.225	0.186785
226.08	0.186862
225.939	0.187041
225.797	0.187027
225.655	0.187035
225.509	0.18699
225.361	0.186888
225.209	0.186724
225.054	0.186525
224.9	0.186292
224.748	0.186049
224.597	0.186097
224.448	0.185862
224.3	0.185699
224.153	0.185603
224.003	0.185578
223.852	0.185611
223.697	0.185701
223.542	0.185836
223.382	0.185986
223.221	0.18613
223.059	0.18606
222.896	0.186172
222.734	0.186237
222.577	0.18625
222.419	0.186199
222.264	0.186097
222.111	0.185906
221.957	0.185606
221.801	0.185289
221.643	0.184944
221.486	0.184567
221.331	0.184192
221.173	0.183832
221.017	0.183489
220.861	0.183149
220.706	0.182827
220.557	0.18254
220.412	0.18229
220.27	0.182078
220.13	0.181893
219.994	0.181754
219.861	0.181609
219.729	0.181456
219.599	0.181303
219.47	0.181169
219.338	0.180963
219.206	0.180765
219.079	0.180591
218.955	0.180451
218.829	0.180348
218.701	0.180266
218.571	0.180194
218.437	0.180127
218.304	0.180084
218.169	0.180036
218.035	0.180002
217.898	0.179969
217.761	0.179928
217.622	0.18004
217.483	0.180003
217.345	0.179978
217.208	0.179931
217.074	0.179862
216.942	0.179806
216.812	0.179725
216.684	0.179666
216.556	0.179654
216.432	0.179616
216.306	0.179587
216.184	0.17957
216.06	0.179564
215.937	0.179551
215.816	0.179532
215.694	0.179514
215.571	0.17947
215.445	0.179438
215.32	0.179308
215.194	0.179238
215.067	0.179122
214.941	0.179021
214.813	0.17894
214.689	0.178874
214.567	0.178838
214.445	0.178828
214.32	0.178826
214.194	0.178826
214.067	0.17881
213.938	0.178778
213.809	0.178722
213.682	0.178657
213.556	0.178568
213.432	0.178559
213.309	0.178451
213.189	0.178302
213.067	0.178117
212.946	0.177938
212.824	0.177702
212.698	0.177442
212.565	0.177183
212.429	0.176939
212.287	0.176725
212.142	0.176523
211.997	0.176341
211.853	0.176167
211.712	0.175998
211.575	0.175846
211.438	0.175691
211.304	0.175536
211.17	0.175367
211.036	0.175195
210.902	0.174714
210.767	0.174521
210.632	0.174285
210.497	0.174032
210.361	0.173889
210.226	0.173579
210.089	0.173313
209.95	0.173099
209.809	0.172959
209.666	0.172902
209.519	0.172949
209.371	0.173072
209.225	0.173261
209.077	0.173507
208.931	0.173803
208.79	0.174127
208.649	0.174485
208.514	0.174913
208.378	0.175319
208.244	0.175694
208.112	0.176044
207.979	0.176321
207.848	0.17646
207.718	0.176489
207.587	0.176336
207.456	0.176069
207.325	0.175719
207.194	0.175344
207.062	0.174959
206.93	0.174613
206.797	0.174293
206.665	0.174004
206.531	0.173755
206.395	0.173562
206.259	0.173354
206.124	0.173227
205.986	0.173103
205.847	0.172982
205.708	0.172852
205.567	0.172711
205.426	0.172556
205.277	0.172393
205.125	0.172263
204.971	0.172088
204.82	0.17193
204.67	0.171775
204.519	0.171645
204.369	0.171517
204.217	0.171417
204.068	0.171321
203.918	0.171236
203.769	0.171174
203.623	0.171128
203.479	0.171079
203.334	0.171029
203.188	0.170969
203.04	0.170866
202.889	0.170785
202.738	0.170719
202.587	0.17066
202.438	0.170689
202.291	0.170683
202.147	0.17076
202.009	0.170907
201.874	0.171124
201.745	0.171393
201.617	0.171785
201.49	0.172147
201.366	0.17254
201.243	0.172864
201.118	0.173037
200.99	0.173022
200.858	0.172812
200.724	0.172429
200.588	0.171947
200.453	0.171445
200.318	0.170948
200.184	0.17047
200.051	0.170023
199.919	0.169653
199.79	0.169211
199.663	0.168838
199.539	0.168588
199.418	0.168448
199.299	0.16853
199.183	0.168781
199.07	0.169114
198.955	0.169478
198.842	0.169852
198.728	0.170206
198.613	0.170514
198.5	0.170805
198.385	0.17105
198.269	0.171232
198.151	0.171324
198.031	0.171304
197.911	0.17117
197.79	0.17093
197.669	0.17057
197.549	0.170276
197.427	0.17002
197.304	0.1698
197.182	0.169603
197.059	0.16942
196.935	0.169113
196.813	0.168967
196.69	0.168765
196.568	0.168516
196.448	0.168219
196.327	0.167897
196.204	0.167538
196.081	0.167178
195.956	0.166834
195.827	0.166479
195.698	0.166199
195.571	0.165945
195.45	0.165717
195.334	0.165558
195.222	0.165388
195.108	0.165247
194.994	0.165157
194.882	0.165127
194.77	0.165203
194.66	0.165363
194.551	0.165694
194.442	0.166096
194.335	0.16651
194.226	0.166841
194.117	0.167072
194.009	0.167149
193.902	0.167115
193.798	0.167007
193.697	0.166844
193.594	0.166637
193.491	0.166419
193.386	0.166177
193.28	0.165935
193.172	0.165729
193.063	0.165515
192.952	0.165362
192.84	0.165367
192.728	0.165559
192.616	0.165877
192.505	0.166312
192.393	0.166741
192.28	0.167163
192.167	0.167544
192.055	0.167919
191.947	0.16822
191.839	0.16846
191.731	0.168622
191.622	0.168688
191.512	0.168642
191.401	0.168494
191.289	0.168251
191.172	0.167934
191.054	0.167587
190.932	0.167287
190.81	0.166974
190.686	0.166688
190.559	0.166361
190.431	0.166112
190.301	0.165817
190.17	0.165531
190.038	0.165231
189.904	0.164925
189.77	0.164621
189.636	0.164295
189.503	0.163996
189.37	0.163797
189.238	0.163777
189.105	0.163981
188.971	0.164413
188.834	0.165035
188.695	0.165772
188.558	0.166549
188.419	0.167403
188.279	0.168175
188.139	0.168929
188	0.169619
187.858	0.170406
187.716	0.17115
187.574	0.171762
187.432	0.17226
187.291	0.1725
187.154	0.172483
187.017	0.17231
186.883	0.172002
186.753	0.171583
186.624	0.171068
186.495	0.17062
186.364	0.170191
186.231	0.16984
186.095	0.169578
185.962	0.169451
185.829	0.169461
185.692	0.169643
185.557	0.169965
185.422	0.17046
185.286	0.170957
185.15	0.171474
185.012	0.172031
184.875	0.172624
184.737	0.173238
184.6	0.173873
184.462	0.174516
184.325	0.175171
184.187	0.175821
184.048	0.176461
183.908	0.177067
183.765	0.177638
183.622	0.178173
183.478	0.178672
183.334	0.179171
183.188	0.17958
183.042	0.179963
182.895	0.180278
182.748	0.180598
182.601	0.18094
182.454	0.181299
182.306	0.181653
182.162	0.182072
182.02	0.182519
181.879	0.182988
181.739	0.183473
181.597	0.184004
181.457	0.184587
181.318	0.185259
181.178	0.18604
181.037	0.18693
180.896	0.187912
180.753	0.188932
180.611	0.189972
180.468	0.191006
180.325	0.192029
180.182	0.193025
180.039	0.19397
179.898	0.194911
179.757	0.195872
179.617	0.196791
179.476	0.197582
179.335	0.198204
179.193	0.198735
179.051	0.199202
178.908	0.19967
178.765	0.200131
178.623	0.200605
178.482	0.201075
178.343	0.201567
178.204	0.202098
178.062	0.202659
177.921	0.203327
177.779	0.204101
177.64	0.204983
177.5	0.205991
177.362	0.207055
177.225	0.208269
177.088	0.209506
176.95	0.210834
176.809	0.212233
176.669	0.213709
176.529	0.215251
176.389	0.216926
176.25	0.218637
176.111	0.220382
175.973	0.22216
175.835	0.223952
175.699	0.225752
175.567	0.227536
175.432	0.22929
175.298	0.231013
175.166	0.232685
175.031	0.234292
174.897	0.235866
174.764	0.237408
174.632	0.238858
174.5	0.240344
174.368	0.241971
174.234	0.243717
174.1	0.245601
173.967	0.247657
173.833	0.249903
173.699	0.252362
173.564	0.255022
173.428	0.257915
173.293	0.261044
173.158	0.264409
173.023	0.268022
172.89	0.271856
172.76	0.275893
172.633	0.279975
172.506	0.284138
172.383	0.28834
172.262	0.292575
172.142	0.296827
172.022	0.301092
171.9	0.30537
171.778	0.309679
171.657	0.314014
171.536	0.318355
171.418	0.322711
171.301	0.327092
171.183	0.331462
171.068	0.335836
170.955	0.34022
170.843	0.344633
170.732	0.349084
170.622	0.353578
170.512	0.35813
170.402	0.362752
170.291	0.367437
170.181	0.372168
170.071	0.37695
169.958	0.381775
169.847	0.386646
169.737	0.391551
169.625	0.396539
169.514	0.401489
169.402	0.406479
169.292	0.411484
169.18	0.416513
169.069	0.421526
168.956	0.426539
168.843	0.431549
168.732	0.436551
168.622	0.441536
168.511	0.446538
168.401	0.451547
168.286	0.456559
168.171	0.461603
168.057	0.466685
167.94	0.47183
167.823	0.477036
167.707	0.482313
167.593	0.487674
167.477	0.493145
167.361	0.498735
167.245	0.504407
167.13	0.510189
167.014	0.516091
166.898	0.522119
166.785	0.528291
166.671	0.534567
166.556	0.540991
166.442	0.54756
166.326	0.554287
166.211	0.56118
166.097	0.568249
165.984	0.575516
165.869	0.582995
165.754	0.59073
165.64	0.598679
165.523	0.606869
165.407	0.615283
165.289	0.623905
165.171	0.632792
165.055	0.641833
164.939	0.651082
164.827	0.660521
164.717	0.670158
164.609	0.679971
164.502	0.689996
164.396	0.700159
164.292	0.710502
164.186	0.721037
164.078	0.731747
163.972	0.742625
163.864	0.753673
163.755	0.764871
163.647	0.776211
163.54	0.787655
163.432	0.799199
163.326	0.810834
163.218	0.82249
163.109	0.834245
163.001	0.846096
162.891	0.857869
162.782	0.869622
162.671	0.881307
162.56	0.892922
162.449	0.90441
162.337	0.915756
162.224	0.926967
162.11	0.938058
161.995	0.949029
161.88	0.95989
161.765	0.970658
161.648	0.98133
161.531	0.991906
161.412	1.0024
161.294	1.01281
161.175	1.02315
161.055	1.03346
160.934	1.04374
160.812	1.05402
160.69	1.06432
160.567	1.07463
160.444	1.08494
160.32	1.09524
160.193	1.10555
160.068	1.1159
159.943	1.12625
159.818	1.13668
159.694	1.1472
159.571	1.15781
159.444	1.16859
159.318	1.17948
159.189	1.19049
159.057	1.20163
158.923	1.21292
158.786	1.22433
158.647	1.23592
158.508	1.24769
158.367	1.25962
158.226	1.27175
158.084	1.28403
157.944	1.29646
157.805	1.30913
157.667	1.32197
157.532	1.33494
157.398	1.34804
157.264	1.36124
157.13	1.37454
156.998	1.38793
156.864	1.40144
156.731	1.41503
156.597	1.42869
156.465	1.44243
156.334	1.45622
156.205	1.46984
156.077	1.48368
155.949	1.49754
155.821	1.51139
155.694	1.52524
155.566	1.53909
155.438	1.55289
155.309	1.56668
155.178	1.58041
155.046	1.59405
154.913	1.60758
154.779	1.621
154.643	1.63429
154.504	1.64742
154.363	1.66038
154.217	1.6732
154.069	1.68585
153.917	1.69836
153.763	1.71068
153.608	1.72281
153.452	1.73474
153.295	1.74646
153.138	1.75796
152.98	1.76924
152.823	1.78031
152.663	1.79117
152.504	1.80178
152.345	1.81216
152.186	1.82228
152.028	1.83215
151.87	1.84174
151.713	1.85108
151.555	1.86015
151.398	1.86896
151.242	1.87753
151.086	1.88588
150.928	1.89403
150.773	1.902
150.62	1.90978
150.467	1.91741
150.315	1.92492
150.163	1.93228
150.013	1.93964
149.863	1.94698
149.715	1.95436
149.571	1.96174
149.426	1.96918
149.28	1.97666
149.136	1.98417
148.993	1.9917
148.849	1.99922
148.708	2.00675
148.567	2.01429
148.428	2.02183
148.292	2.02937
148.157	2.0369
148.025	2.04444
147.894	2.05198
147.763	2.05941
147.632	2.06699
147.501	2.07467
147.371	2.08235
147.24	2.09009
147.106	2.09786
146.972	2.10569
146.835	2.11354
146.696	2.12141
146.556	2.12925
146.414	2.13707
146.271	2.14489
146.128	2.15262
145.985	2.16028
145.84	2.16783
145.693	2.17524
145.544	2.1825
145.393	2.18959
145.239	2.19646
145.086	2.20313
144.932	2.20957
144.775	2.21586
144.619	2.22193
144.46	2.22782
144.301	2.23349
144.14	2.23898
143.976	2.24424
143.811	2.24928
143.647	2.25415
143.485	2.25883
143.324	2.26325
143.164	2.26748
143.008	2.27153
142.853	2.27543
142.699	2.27917
142.547	2.28277
142.395	2.28625
142.243	2.28952
142.09	2.29277
141.939	2.2959
141.788	2.29896
141.639	2.30195
141.491	2.30509
141.343	2.30795
141.196	2.31076
141.047	2.31351
140.899	2.31618
140.753	2.31876
140.608	2.32129
140.464	2.32373
140.319	2.32614
140.176	2.32854
140.035	2.33095
139.893	2.33338
139.751	2.33584
139.607	2.33836
139.463	2.34097
139.317	2.34359
139.171	2.3463
139.025	2.34904
138.878	2.35185
138.732	2.35474
138.586	2.35769
138.44	2.36066
138.295	2.36366
138.15	2.36666
138.005	2.36967
137.86	2.37268
137.716	2.37569
137.573	2.37868
137.43	2.38159
137.287	2.38452
137.144	2.38745
137.003	2.39034
136.861	2.39324
136.721	2.39613
136.58	2.39901
136.438	2.40188
136.296	2.40474
136.152	2.4076
136.009	2.41045
135.864	2.41329
135.72	2.4161
135.576	2.4189
135.431	2.42158
135.287	2.42418
135.142	2.42666
134.998	2.42903
134.852	2.43128
134.707	2.43345
134.563	2.43548
134.42	2.43753
134.278	2.43944
134.135	2.4413
133.99	2.44312
133.845	2.44492
133.702	2.44668
133.558	2.44837
133.417	2.45006
133.276	2.45172
133.138	2.45342
133.003	2.45493
132.868	2.45628
132.733	2.45757
132.597	2.45873
132.46	2.45977
132.322	2.46067
132.184	2.46144
132.047	2.4621
131.912	2.46266
131.775	2.46314
131.638	2.46354
131.502	2.46392
131.366	2.4643
131.228	2.46473
131.091	2.4652
130.952	2.46573
130.814	2.46632
130.674	2.46697
130.536	2.4677
130.398	2.4685
130.261	2.46932
130.122	2.47018
129.982	2.47108
129.842	2.47199
129.701	2.47286
129.56	2.47378
129.416	2.47472
129.275	2.47567
129.135	2.47641
128.994	2.4774
128.854	2.47842
128.714	2.47948
128.575	2.48058
128.435	2.4817
128.296	2.48292
128.158	2.48411
128.019	2.48541
127.881	2.48668
127.742	2.48799
127.603	2.48933
127.462	2.49071
127.322	2.49208
127.181	2.49347
127.04	2.49486
126.899	2.49627
126.757	2.49766
126.616	2.49905
126.473	2.50047
126.331	2.50192
126.19	2.50336
126.049	2.50477
125.909	2.50612
125.769	2.50741
125.629	2.50865
125.491	2.50981
125.352	2.51086
125.211	2.51183
125.069	2.51268
124.925	2.51342
124.782	2.51404
124.64	2.51453
124.498	2.5149
124.356	2.51515
124.214	2.5153
124.073	2.51535
123.931	2.51513
123.789	2.51505
123.649	2.51499
123.511	2.51493
123.372	2.51498
123.234	2.51502
123.097	2.51508
122.961	2.5152
122.825	2.5153
122.688	2.5154
122.551	2.51547
122.414	2.51553
122.276	2.5156
122.14	2.51566
122.003	2.51576
121.866	2.51591
121.728	2.51615
121.589	2.51667
121.449	2.51717
121.31	2.51776
121.169	2.51847
121.028	2.51926
120.888	2.52012
120.748	2.52099
120.607	2.52194
120.465	2.52278
120.324	2.52367
120.184	2.52453
120.045	2.52533
119.906	2.52606
119.767	2.52674
119.627	2.5274
119.487	2.52795
119.347	2.52837
119.207	2.52862
119.066	2.52898
118.924	2.52935
118.781	2.52972
118.636	2.53011
118.491	2.53052
118.343	2.53094
118.196	2.5314
118.047	2.53189
117.898	2.53244
117.748	2.53302
117.598	2.53364
117.448	2.53431
117.296	2.53496
117.144	2.53558
116.992	2.53617
116.84	2.53672
116.687	2.53723
116.534	2.53755
116.382	2.53794
116.23	2.53832
116.079	2.53867
115.928	2.53904
115.78	2.53942
115.631	2.53985
115.484	2.54037
115.338	2.54092
115.193	2.54155
115.048	2.54222
114.903	2.54316
114.755	2.5439
114.607	2.54459
114.461	2.54526
114.315	2.54587
114.173	2.54644
114.032	2.5469
113.893	2.54741
113.754	2.54782
113.617	2.54818
113.481	2.54851
113.344	2.54879
113.207	2.54903
113.07	2.54932
112.932	2.54948
112.794	2.54962
112.657	2.5497
112.518	2.54972
112.376	2.5497
112.234	2.54956
112.09	2.54934
111.944	2.54905
111.8	2.54871
111.656	2.54834
111.511	2.54806
111.364	2.5477
111.218	2.54738
111.07	2.5471
110.921	2.54691
110.771	2.5468
110.621	2.54676
110.468	2.54681
110.319	2.54695
110.167	2.54715
110.014	2.54747
109.863	2.54785
109.709	2.54831
109.557	2.54905
109.404	2.54965
109.248	2.55029
109.091	2.55097
108.933	2.55174
108.773	2.55249
108.616	2.55324
108.461	2.55399
108.308	2.55479
108.156	2.5556
108.007	2.55644
107.858	2.55726
107.71	2.55806
107.563	2.55883
107.417	2.55953
107.273	2.56014
107.13	2.56064
106.986	2.56085
106.842	2.56104
106.698	2.56112
106.553	2.56102
106.408	2.56077
106.266	2.56039
106.124	2.55991
105.982	2.55932
105.843	2.55872
105.704	2.55813
105.566	2.55757
105.427	2.55709
105.288	2.55672
105.149	2.55641
105.011	2.55614
104.87	2.55595
104.728	2.55588
104.586	2.55601
104.443	2.55606
104.302	2.55615
104.159	2.55627
104.018	2.55644
103.877	2.55676
103.735	2.55698
103.592	2.55724
103.448	2.55754
103.304	2.55787
103.158	2.55824
103.01	2.55863
102.861	2.55905
102.707	2.55952
102.553	2.56003
102.399	2.56056
102.247	2.56112
102.095	2.56171
101.945	2.56246
101.792	2.56308
101.639	2.56367
101.486	2.56425
101.334	2.56479
101.183	2.56522
101.034	2.56563
100.888	2.5659
100.745	2.56607
100.604	2.56606
100.465	2.56592
100.328	2.56564
100.192	2.56525
100.061	2.56481
99.9338	2.56433
99.8074	2.56382
99.6847	2.5633
99.5636	2.56281
99.4414	2.56231
99.3224	2.5619
99.2036	2.56152
99.0837	2.56118
98.9658	2.56081
98.8462	2.5605
98.7261	2.56017
98.6063	2.55997
98.4888	2.55982
98.3715	2.55975
98.2559	2.5598
98.14	2.55995
98.0212	2.56022
97.9015	2.56059
97.7804	2.56102
97.6598	2.56149
97.5409	2.56202
97.4204	2.56248
97.2975	2.56304
97.1756	2.56359
97.0524	2.56411
96.9285	2.56463
96.8033	2.56512
96.6786	2.56563
96.5547	2.56612
96.4327	2.56663
96.3099	2.56714
96.1856	2.56762
96.0623	2.56813
95.938	2.56859
95.8127	2.56897
95.6884	2.56922
95.5626	2.56936
95.4363	2.56934
95.3103	2.56912
95.1859	2.56883
95.0608	2.5684
94.9349	2.56791
94.8067	2.56734
94.6763	2.56662
94.5445	2.56605
94.4093	2.56552
94.2757	2.56503
94.1425	2.56458
94.0099	2.56421
93.8798	2.56391
93.7519	2.56367
93.6245	2.56354
93.4975	2.56346
93.3684	2.56343
93.2393	2.5635
93.1081	2.56366
92.9792	2.56392
92.8518	2.56425
92.7257	2.56466
92.5976	2.56508
92.469	2.56551
92.3386	2.56583
92.2107	2.56621
92.0828	2.56651
91.9548	2.56683
91.8288	2.56716
91.7036	2.56753
91.5777	2.5679
91.4484	2.5683
91.3154	2.56878
91.1798	2.56923
91.0419	2.56967
90.9022	2.57007
90.7612	2.57029
90.6207	2.57057
90.4801	2.57077
90.3383	2.57087
90.1956	2.57086
90.0529	2.57082
89.9099	2.57068
89.766	2.57042
89.6235	2.57008
89.4838	2.56968
89.3449	2.56926
89.2072	2.56882
89.0691	2.56837
88.9314	2.56794
88.7917	2.56753
88.6513	2.56717
88.5091	2.56683
88.3666	2.56653
88.2225	2.56632
88.0778	2.56604
87.932	2.56589
87.7821	2.5658
87.6306	2.56582
87.481	2.56613
87.3353	2.56636
87.1887	2.56665
87.0435	2.56699
86.8993	2.5674
86.7563	2.56784
86.6124	2.56832
86.4659	2.5688
86.3174	2.56928
86.17	2.56971
86.0231	2.57016
85.8747	2.5706
85.7286	2.57106
85.5827	2.57148
85.4371	2.57186
85.2934	2.5722
85.1504	2.5725
85.0069	2.57272
84.8615	2.57296
84.716	2.57308
84.5729	2.57315
84.4315	2.57316
84.2911	2.57314
84.1518	2.57311
84.014	2.57304
83.8739	2.57294
83.7326	2.57276
83.5897	2.57258
83.4453	2.57237
83.301	2.5721
83.1567	2.57182
83.0114	2.57146
82.8704	2.57106
82.7313	2.57062
82.593	2.57017
82.4535	2.56997
82.3117	2.56954
82.1696	2.56913
82.0293	2.56882
81.8923	2.56861
81.7564	2.56852
81.6225	2.56857
81.4917	2.56871
81.3609	2.56892
81.2306	2.56928
81.0984	2.56966
80.9639	2.57008
80.8301	2.57061
80.6996	2.57098
80.5693	2.57129
80.4379	2.57157
80.304	2.57177
80.1689	2.57193
80.0316	2.5719
79.8939	2.57196
79.757	2.57198
79.6179	2.57202
79.4778	2.57206
79.3368	2.57213
79.195	2.57219
79.0503	2.5723
78.9028	2.57241
78.7548	2.57255
78.6059	2.57269
78.4564	2.57284
78.3068	2.57306
78.1579	2.57317
78.0071	2.57323
77.8588	2.57323
77.7113	2.57318
77.566	2.57305
77.4235	2.57283
77.283	2.5726
77.1455	2.57226
77.009	2.57193
76.8718	2.57159
76.7323	2.5713
76.5957	2.57109
76.4605	2.57097
76.3275	2.57094
76.1954	2.57099
76.0647	2.57117
75.9368	2.57135
75.8093	2.57163
75.6821	2.57196
75.555	2.57232
75.4297	2.57265
75.3021	2.57296
75.1715	2.57325
75.0384	2.57324
74.9044	2.57341
74.7691	2.57358
74.6321	2.57367
74.4954	2.57376
74.3594	2.57375
74.2233	2.57377
74.0888	2.57382
73.9542	2.57379
73.82	2.57377
73.686	2.57373
73.5523	2.5735
73.4177	2.57344
73.2852	2.5734
73.1517	2.57337
73.0176	2.57334
72.8815	2.5733
72.7437	2.57324
72.6034	2.57316
72.4606	2.57308
72.3192	2.57299
72.1798	2.57286
72.0399	2.57272
71.9005	2.57259
71.7595	2.57244
71.6147	2.5723
71.4683	2.57215
71.3189	2.57204
71.166	2.57194
71.0137	2.57181
70.86	2.57175
70.7077	2.57173
70.5546	2.57175
70.4032	2.5718
70.25	2.57187
70.0974	2.57197
69.9484	2.57181
69.803	2.57194
69.6604	2.57207
69.5195	2.57223
69.3789	2.57243
69.2367	2.57265
69.0956	2.57291
68.9548	2.57318
68.8143	2.57345
68.6729	2.57371
68.5305	2.57368
68.3892	2.57387
68.2465	2.57403
68.1053	2.57417
67.9639	2.57427
67.8242	2.57431
67.6858	2.5743
67.5518	2.57427
67.4157	2.57431
67.2795	2.57426
67.1447	2.57422
67.0061	2.57418
66.8673	2.57416
66.7314	2.57414
66.5952	2.57415
66.4604	2.57416
66.327	2.57422
66.1906	2.57427
66.0529	2.57447
65.9132	2.57453
65.7732	2.57457
65.6329	2.57457
65.492	2.57453
65.3505	2.57445
65.2071	2.57431
65.0624	2.5741
64.913	2.57388
64.7632	2.57364
64.6123	2.57326
64.4636	2.57301
64.315	2.57282
64.1663	2.57267
64.0187	2.57258
63.8707	2.57255
63.7221	2.57257
63.5726	2.57267
63.4213	2.57281
63.2703	2.57292
63.1177	2.57307
62.9631	2.57323
62.8085	2.57338
62.6532	2.5735
62.4984	2.57358
62.3449	2.57364
62.1894	2.57365
62.0345	2.57362
61.8801	2.57352
61.7278	2.5734
61.5774	2.57314
61.4274	2.57296
61.2769	2.57277
61.1274	2.57261
60.9778	2.57247
60.8299	2.57234
60.6831	2.57248
60.5374	2.57242
60.3933	2.57236
60.2511	2.57232
60.1084	2.57229
59.9674	2.57232
59.8267	2.57229
59.6898	2.57228
59.5526	2.57223
59.4164	2.57217
59.2817	2.57212
59.1461	2.57204
59.0103	2.57196
58.8747	2.57187
58.7381	2.57177
58.6004	2.57184
58.4633	2.57176
58.3258	2.5717
58.1874	2.57169
58.0493	2.57171
57.9124	2.57182
57.778	2.57199
57.6435	2.57223
57.5094	2.57254
57.3729	2.57292
57.2374	2.57333
57.0996	2.57377
56.9639	2.57419
56.8266	2.57461
56.6907	2.575
56.5569	2.57538
56.4214	2.5757
56.2875	2.57602
56.1541	2.57632
56.017	2.57661
55.8811	2.57689
55.7449	2.57744
55.6085	2.57775
55.4748	2.57806
55.3412	2.5783
55.2081	2.57845
55.0752	2.57849
54.943	2.57841
54.8111	2.5782
54.6803	2.57787
54.552	2.57744
54.4251	2.57697
54.2994	2.57651
54.1745	2.57609
54.0521	2.57567
53.9307	2.5753
53.8108	2.57493
53.6941	2.57458
53.5788	2.57427
53.4659	2.57404
53.354	2.57406
53.2416	2.5743
53.1304	2.57469
53.0191	2.57512
52.9101	2.57556
52.8019	2.57597
52.6918	2.57637
52.5849	2.57675
52.4759	2.57713
52.3688	2.57748
52.2639	2.57771
52.1615	2.57795
52.0622	2.57815
51.9626	2.57829
51.8612	2.57837
51.7597	2.57842
51.6598	2.57841
51.5607	2.57831
51.4616	2.57811
51.3628	2.57802
51.2637	2.5778
51.1665	2.57753
51.0704	2.57727
50.9747	2.57699
50.8801	2.57667
50.7846	2.57634
50.6902	2.57598
50.5952	2.57571
50.5011	2.57557
50.4075	2.57547
50.3135	2.57567
50.2202	2.57601
50.1272	2.57638
50.0344	2.57678
49.9423	2.57721
49.8525	2.5776
49.7641	2.57802
49.6765	2.57843
49.5892	2.57885
49.5031	2.57936
49.416	2.57977
49.3279	2.58016
49.2394	2.58051
49.1523	2.58083
49.0682	2.58106
48.9874	2.58121
48.9102	2.58128
48.8305	2.58126
48.7505	2.58113
48.6715	2.58092
48.591	2.58068
48.5105	2.58042
48.4304	2.58018
48.3493	2.57995
48.2688	2.57974
48.1858	2.57955
48.1005	2.57928
48.0152	2.57915
47.9279	2.57904
47.8403	2.579
47.7527	2.57887
47.6689	2.57903
47.5874	2.57929
47.508	2.57958
47.43	2.57988
47.3524	2.58012
47.2744	2.58028
47.1995	2.58036
47.1263	2.58035
47.0537	2.58027
46.9807	2.58014
46.9074	2.5801
46.8329	2.57991
46.758	2.57971
46.6834	2.5795
46.6084	2.57924
46.5367	2.57895
46.4658	2.5786
46.3979	2.57818
46.3302	2.5777
46.2662	2.57716
46.204	2.57658
46.1445	2.57599
46.0879	2.57538
46.032	2.57486
45.9775	2.57444
45.9233	2.57413
45.869	2.57395
45.8146	2.57392
45.7621	2.57406
45.7117	2.57433
45.6625	2.57469
45.615	2.57511
45.5688	2.57559
45.5221	2.57614
45.4748	2.57673
45.4247	2.57738
45.3734	2.57809
45.3203	2.57879
45.265	2.57933
45.2086	2.57964
45.1528	2.5797
45.0971	2.57959
45.0396	2.5794
44.9809	2.5792
44.9235	2.57897
44.8659	2.57873
44.8105	2.57848
44.7563	2.57821
44.7031	2.57795
44.6514	2.57775
44.5997	2.57753
44.5506	2.57733
44.5054	2.57718
44.4588	2.57703
44.4153	2.57694
44.3746	2.57693
44.3346	2.57696
44.2936	2.57709
44.2522	2.57726
44.208	2.57744
44.1616	2.57769
44.1154	2.57794
44.0694	2.5782
44.0223	2.57845
43.9763	2.5787
43.9328	2.57892
43.8915	2.57908
43.8497	2.57907
43.8073	2.57903
43.7661	2.57868
43.7288	2.57821
43.693	2.57772
43.6564	2.57722
43.6201	2.57671
43.5865	2.57625
43.5509	2.57579
43.5145	2.57536
43.4772	2.57495
43.4392	2.57455
43.4009	2.57419
43.3648	2.5739
43.3282	2.57366
43.2929	2.57348
43.2589	2.57348
43.2267	2.57363
43.1967	2.57399
43.1682	2.57445
43.1394	2.57503
43.1096	2.5757
43.0802	2.57639
43.0492	2.57708
43.0179	2.57772
42.9843	2.57833
42.9505	2.5789
42.9159	2.57943
42.8821	2.58
42.8438	2.58041
42.8026	2.58075
42.7598	2.58098
42.7163	2.58107
42.6715	2.58098
42.6271	2.58072
42.585	2.58032
42.5449	2.57982
42.5034	2.57927
42.4617	2.57869
42.4194	2.57807
42.3777	2.57745
42.3386	2.57686
42.3026	2.57631
42.2683	2.57561
42.2354	2.57515
42.205	2.57475
42.1768	2.57452
42.1516	2.57434
42.1273	2.57427
42.1066	2.57429
42.0899	2.5744
42.0739	2.5746
42.0589	2.57486
42.0456	2.57518
42.0304	2.57552
42.0158	2.57586
41.9988	2.57616
41.9802	2.57644
41.962	2.57669
41.9433	2.57693
41.9239	2.57713
41.9076	2.57728
41.8898	2.57741
41.872	2.57749
41.8552	2.57749
41.8397	2.57742
41.8249	2.57735
41.811	2.57712
41.7988	2.57684
41.7864	2.57655
41.7753	2.57624
41.7647	2.57595
41.7528	2.57572
41.7388	2.57555
41.7225	2.5754
41.7076	2.57528
41.6929	2.57521
41.6789	2.57521
41.6625	2.57523
41.644	2.57529
41.6272	2.57538
41.6099	2.57548
41.59	2.57562
41.5706	2.57578
41.5513	2.57595
41.5324	2.57616
41.5119	2.57643
41.4891	2.57667
41.4682	2.57691
41.4432	2.57719
41.4172	2.57716
41.3893	2.57735
41.3604	2.57755
41.3303	2.57768
41.2996	2.5778
41.2704	2.57795
41.2418	2.57809
41.214	2.5782
41.1863	2.57833
41.1605	2.57848
41.1368	2.57863
41.1144	2.57881
41.0925	2.579
41.0713	2.57921
41.0505	2.57942
41.0295	2.57968
41.008	2.57991
40.9867	2.58012
40.9657	2.58029
40.9456	2.58041
40.9255	2.58045
40.9044	2.58043
40.8843	2.58031
40.8625	2.58011
40.8399	2.57979
40.817	2.57951
40.7929	2.5791
40.7678	2.57861
40.7436	2.57803
40.7196	2.57741
40.696	2.57679
40.6726	2.57616
40.6452	2.57556
40.6156	2.57494
40.5829	2.57437
40.5492	2.57383
40.5155	2.57338
40.481	2.57308
40.4454	2.57298
40.4098	2.57305
40.3722	2.57327
40.3355	2.57356
40.2984	2.57389
40.262	2.57427
40.2261	2.57469
40.1894	2.57515
40.1525	2.57565
40.1178	2.5762
40.0843	2.57676
40.0523	2.57733
40.0229	2.57784
39.9946	2.5783
39.9677	2.57868
39.9421	2.57898
39.9186	2.57918
39.8957	2.57923
39.8737	2.57909
39.8516	2.57886
39.8311	2.57856
39.8114	2.57822
39.7921	2.57788
39.7755	2.57754
39.7585	2.5772
39.7438	2.57688
39.7307	2.57654
39.7165	2.57624
39.7035	2.57596
39.6921	2.57577
39.6801	2.57575
39.6686	2.57588
39.6574	2.57616
39.6482	2.57651
39.6411	2.57688
39.632	2.57726
39.6275	2.57764
39.6226	2.57818
39.6187	2.5785
39.6136	2.57889
39.6092	2.57927
39.6046	2.57961
39.6	2.57983
39.5959	2.57999
39.5905	2.58005
39.5844	2.58001
39.5743	2.57984
39.5599	2.57957
39.5422	2.57919
39.5223	2.57871
39.5017	2.57818
39.4824	2.57764
39.4653	2.5771
39.4488	2.57656
39.4327	2.57604
39.4157	2.57555
39.3976	2.57506
39.378	2.57459
39.3578	2.57416
39.3387	2.57384
39.322	2.57369
39.3057	2.5737
39.2893	2.57413
39.2731	2.57442
39.2543	2.57479
39.2335	2.57512
39.2136	2.57544
39.1907	2.5757
39.1676	2.57596
39.147	2.57625
39.1278	2.57651
39.1076	2.57671
39.0846	2.57687
39.06	2.57695
39.0337	2.57695
39.0079	2.57684
38.983	2.57663
38.9611	2.57629
38.9399	2.57591
38.92	2.57551
38.899	2.57513
38.8757	2.5748
38.8531	2.57455
38.8303	2.57439
38.807	2.57432
38.7854	2.5743
38.7632	2.57438
38.7397	2.57445
38.7155	2.57462
38.6898	2.57493
38.6627	2.57535
38.6344	2.57585
38.6055	2.57642
38.5765	2.57699
38.5474	2.57757
38.517	2.57821
38.4847	2.57881
38.4504	2.57939
38.4132	2.57988
38.3767	2.5802
38.34	2.58031
38.3049	2.58023
38.2716	2.57997
38.2402	2.57959
38.2092	2.57914
38.1789	2.57861
38.1491	2.57801
38.1193	2.57738
38.0888	2.57674
38.0577	2.57611
38.027	2.57549
37.9969	2.57492
37.9694	2.57444
37.9436	2.57398
37.9189	2.5736
37.8937	2.57335
37.867	2.57316
37.8395	2.57311
37.8102	2.57329
37.7807	2.57369
37.7489	2.57428
37.7214	2.57497
37.6978	2.57564
37.6756	2.57632
37.6547	2.577
37.6344	2.57765
37.6136	2.5783
37.5929	2.5789
37.5736	2.57946
37.5543	2.57988
37.534	2.58011
37.5131	2.58011
37.4916	2.5799
37.4708	2.57953
37.4498	2.57906
37.4294	2.57853
37.4099	2.57794
37.3917	2.57713
37.372	2.57646
37.356	2.57582
37.3435	2.57519
37.332	2.57457
37.3243	2.57404
37.3181	2.57354
37.309	2.57313
37.2966	2.5729
37.2829	2.57278
37.2694	2.57291
37.256	2.57327
37.2419	2.57379
37.2272	2.57442
37.2115	2.57507
37.194	2.57573
37.1795	2.57639
37.1648	2.57703
37.1508	2.57764
37.1384	2.57823
37.1233	2.57879
37.1079	2.57928
37.093	2.57965
37.0776	2.57982
37.0625	2.57977
37.0475	2.57951
37.0328	2.5791
37.0193	2.57853
37.0068	2.57794
36.9952	2.5773
36.9833	2.57665
36.9718	2.57601
36.9651	2.57539
36.9562	2.57479
36.9525	2.57425
36.9516	2.57376
36.9533	2.57332
36.9567	2.57303
36.9606	2.57287
36.9627	2.57284
36.9644	2.57306
36.964	2.57348
36.9626	2.57404
36.9589	2.57467
36.9522	2.57531
36.9437	2.57594
36.934	2.57659
36.9274	2.57719
36.9212	2.57778
36.9138	2.57834
36.9042	2.57882
36.894	2.5792
36.8836	2.57939
36.8735	2.57939
36.8659	2.57927
36.8608	2.57898
36.8592	2.5786
36.8601	2.57815
36.8656	2.5776
36.8702	2.57701
36.8742	2.57639
36.8814	2.57579
36.8895	2.57512
36.8986	2.57464
36.908	2.57421
36.9206	2.57388
36.9325	2.57366
36.9437	2.57349
36.9583	2.57342
36.9727	2.57346
36.9868	2.57357
36.9967	2.57377
37.0051	2.57406
37.0109	2.57447
37.0177	2.57496
37.0221	2.57551
37.029	2.57607
37.034	2.57665
37.0369	2.57722
37.0374	2.57774
37.0373	2.5782
37.0358	2.5785
37.0367	2.57862
37.0391	2.57858
37.0431	2.57843
37.0465	2.57825
37.0513	2.57802
37.055	2.57773
37.059	2.57742
37.0614	2.57712
37.065	2.57674
37.0678	2.57635
37.0701	2.57596
37.0737	2.5756
37.0781	2.57527
37.0845	2.57499
37.09	2.57479
37.0952	2.57467
37.0998	2.57467
37.103	2.5747
37.1087	2.57479
37.113	2.57493
37.1186	2.57506
37.1225	2.57523
37.1247	2.5754
37.1275	2.57559
37.1291	2.57584
37.1293	2.57608
37.1325	2.57624
37.135	2.57638
37.1367	2.57638
37.139	2.57625
37.1424	2.57603
37.1469	2.57576
37.1525	2.57547
37.1578	2.57524
37.1651	2.57499
37.1722	2.57477
37.1825	2.57462
37.1942	2.57445
37.2082	2.57432
37.2236	2.57423
37.2353	2.57418
37.2443	2.57417
37.2546	2.57424
37.2659	2.57436
37.2771	2.57456
37.2887	2.57482
37.299	2.57512
37.3059	2.57548
37.3082	2.57583
37.3068	2.57619
37.3034	2.57652
37.299	2.57684
37.2954	2.57714
37.293	2.57742
37.2888	2.5777
37.2839	2.57791
37.2813	2.57806
37.2768	2.57817
37.2714	2.57811
37.2662	2.57791
37.2624	2.5776
37.2574	2.57724
37.2507	2.57684
37.244	2.57644
37.24	2.576
37.2352	2.57558
37.2295	2.57518
37.2188	2.57479
37.2085	2.57443
37.1944	2.57411
37.1789	2.57384
37.1638	2.57364
37.1482	2.57351
37.1329	2.57346
37.1187	2.57348
37.1061	2.57359
37.0975	2.57374
37.0926	2.57394
37.0913	2.57418
37.0899	2.57444
37.0937	2.57478
37.0984	2.57497
37.1054	2.57516
37.1132	2.57531
37.1211	2.57542
37.1291	2.57556
37.1374	2.57566
37.144	2.57573
37.1499	2.57576
37.1555	2.57574
37.161	2.57563
37.1666	2.57542
37.1741	2.57514
37.1782	2.5748
37.1822	2.57448
37.1845	2.57416
37.1871	2.57387
37.1936	2.57361
37.2014	2.5734
37.2113	2.57321
37.2199	2.57308
37.2287	2.57298
37.2381	2.57293
37.2485	2.57292
37.2592	2.57296
37.2677	2.57304
37.275	2.57315
37.2811	2.57327
37.287	2.57347
37.2904	2.57371
37.2928	2.57399
37.2924	2.57428
37.2927	2.57459
37.294	2.57491
37.2986	2.57522
37.3084	2.57552
37.3235	2.57576
37.3401	2.57602
37.3594	2.57623
37.3812	2.57641
37.4041	2.57655
37.4285	2.57665
37.4549	2.57671
37.485	2.57673
37.518	2.57669
37.5534	2.57663
37.5909	2.57653
37.6293	2.57642
37.6701	2.57628
37.7133	2.57614
37.7589	2.57599
37.8036	2.57586
37.8526	2.57573
37.9029	2.57557
37.9546	2.57545
38.0075	2.5753
38.0614	2.57515
38.1173	2.57509
38.1756	2.57506
38.2354	2.57507
38.2982	2.5751
38.3637	2.57517
38.4343	2.57526
38.5073	2.57536
38.5846	2.57546
38.6648	2.57556
38.7444	2.57567
38.8282	2.57575
38.9131	2.57583
38.9987	2.5759
39.087	2.57595
39.171	2.57599
39.2535	2.57601
39.3357	2.57598
39.4178	2.57598
39.4977	2.57596
39.5785	2.57594
39.6594	2.5759
39.7415	2.57591
39.8252	2.57594
39.9091	2.57599
39.9934	2.57609
40.0806	2.5762
40.17	2.5763
40.2634	2.57642
40.359	2.57655
40.4551	2.57667
40.5504	2.57679
40.6469	2.57688
40.7453	2.57695
40.8455	2.57699
40.9484	2.57697
41.051	2.57693
41.1526	2.57685
41.2552	2.57674
41.3587	2.57659
41.4629	2.57643
41.5656	2.57625
41.6672	2.57604
41.7658	2.57577
41.8638	2.57552
41.9621	2.57527
42.0617	2.57501
42.1626	2.57481
42.2638	2.57462
42.3675	2.57442
42.475	2.57425
42.5844	2.57417
42.6918	2.57423
42.7972	2.5744
42.8997	2.57468
42.9998	2.57504
43.099	2.57544
43.1973	2.57583
43.2932	2.57618
43.3907	2.57648
43.4881	2.57672
43.5836	2.5769
43.675	2.57704
43.7647	2.57713
43.8521	2.57717
43.9399	2.57717
44.0264	2.57712
44.1121	2.57702
44.198	2.57689
44.2845	2.57673
44.3709	2.57655
44.4569	2.57634
44.5425	2.57611
44.628	2.57585
44.7123	2.57562
44.7968	2.57541
44.8822	2.57528
44.9691	2.57518
45.0585	2.57512
45.1496	2.57509
45.2417	2.5751
45.3362	2.57511
45.4323	2.57516
45.5298	2.57521
45.6296	2.57528
45.7337	2.57535
45.8362	2.57542
45.9387	2.57549
46.0406	2.57555
46.1389	2.5756
46.2386	2.57565
46.3385	2.57568
46.4396	2.5757
46.5414	2.57569
46.6459	2.57566
46.7497	2.57558
46.8539	2.57547
46.9564	2.57531
47.0565	2.5751
47.1579	2.57489
47.2591	2.57461
47.3608	2.57427
47.4633	2.57389
47.5659	2.57339
47.6687	2.5731
47.772	2.57285
47.8769	2.57267
47.9837	2.57256
48.0908	2.57254
48.1971	2.57259
48.3017	2.57267
48.4031	2.57278
48.505	2.5729
48.606	2.57303
48.7068	2.57314
48.8085	2.57325
48.9088	2.57337
49.0072	2.57355
49.1073	2.57372
49.2083	2.5739
49.3127	2.57409
49.4175	2.57432
49.5265	2.5745
49.6382	2.57468
49.7506	2.57481
49.8623	2.57488
49.9735	2.57493
50.0856	2.57496
50.1966	2.57495
50.307	2.5749
50.4137	2.57482
50.516	2.57469
50.6169	2.57453
50.7194	2.57433
50.8218	2.5741
50.9245	2.57386
51.0303	2.57354
51.1412	2.5733
51.2566	2.5731
51.3738	2.57292
51.488	2.57277
51.6026	2.57267
51.7164	2.57262
51.8313	2.57267
51.9471	2.57276
52.0653	2.57293
52.1858	2.5732
52.3069	2.57354
52.4302	2.57398
52.5542	2.57448
52.6784	2.57501
52.8028	2.57547
52.9238	2.57578
53.0427	2.57595
53.1603	2.57598
53.2804	2.5759
53.3977	2.57574
53.513	2.57554
53.6266	2.57532
53.7401	2.57511
53.8512	2.5749
53.9617	2.57469
54.073	2.57449
54.1857	2.57429
54.3021	2.57409
54.4212	2.57389
54.5391	2.5737
54.6545	2.57351
54.7693	2.57336
54.8829	2.5732
54.9938	2.57303
55.1041	2.57292
55.2132	2.57284
55.3208	2.57275
55.426	2.57265
55.5307	2.57253
55.6356	2.57235
55.7382	2.57217
55.8356	2.57199
55.9299	2.57185
56.0238	2.57175
56.1173	2.5717
56.2102	2.5717
56.3033	2.57174
56.3937	2.57184
56.4832	2.57197
56.5743	2.57214
56.6658	2.57235
56.7569	2.57258
56.8478	2.57282
56.9405	2.57307
57.0377	2.57332
57.1397	2.57359
57.2451	2.57386
57.3518	2.57415
57.4577	2.57447
57.5666	2.57479
57.6752	2.57514
57.7839	2.57551
57.8956	2.57589
58.0082	2.57633
58.1212	2.57672
58.2355	2.57711
58.3519	2.57757
58.4663	2.57791
58.5824	2.57811
58.7023	2.5782
58.8257	2.57819
58.95	2.57803
59.0742	2.57775
59.2001	2.57736
59.3281	2.57689
59.4579	2.57635
59.5847	2.57574
59.7091	2.57513
59.8341	2.5745
59.9581	2.57388
60.0811	2.57327
60.2018	2.57266
60.3194	2.57203
60.4336	2.57142
60.5434	2.57083
60.6513	2.57035
60.7597	2.57006
60.8674	2.57001
60.976	2.57015
61.0856	2.57039
61.1992	2.57067
61.3148	2.57098
61.4303	2.5713
61.5427	2.57164
61.6545	2.57201
61.7682	2.57236
61.8815	2.57278
61.9937	2.57323
62.1086	2.57371
62.2247	2.57423
62.3416	2.57471
62.4596	2.57516
62.5763	2.57558
62.6901	2.57598
62.8036	2.57632
62.9167	2.57659
63.0318	2.57678
63.1476	2.57689
63.2671	2.57689
63.388	2.57676
63.5082	2.57647
63.6279	2.57606
63.7493	2.57556
63.8703	2.57499
63.9912	2.57438
64.1159	2.57379
64.2465	2.5732
64.3806	2.57262
64.5104	2.57207
64.6385	2.57157
64.7668	2.5712
64.8954	2.57102
65.0278	2.57102
65.1628	2.57119
65.299	2.57146
65.4366	2.57176
65.5757	2.57206
65.7175	2.57237
65.8575	2.57271
65.9959	2.57303
66.1338	2.57339
66.2705	2.57371
66.4084	2.57404
66.5457	2.57435
66.6791	2.57464
66.8099	2.5749
66.942	2.57514
67.0733	2.57537
67.2053	2.57556
67.3376	2.57572
67.4701	2.57584
67.6027	2.57589
67.7386	2.57588
67.8779	2.57579
68.017	2.57564
68.1539	2.57543
68.2883	2.57519
68.4201	2.57491
68.5482	2.5746
68.6714	2.57428
68.7911	2.57395
68.9134	2.57364
69.0383	2.57336
69.1637	2.5731
69.2899	2.57286
69.4176	2.57265
69.5467	2.57237
69.6794	2.5722
69.8123	2.57207
69.9458	2.57196
70.0793	2.5719
70.2088	2.57191
70.3405	2.57193
70.4734	2.57194
70.6078	2.57201
70.7425	2.57207
70.8791	2.57213
71.0176	2.57207
71.1556	2.57205
71.2987	2.57201
71.4412	2.57198
71.5853	2.57197
71.7314	2.57201
71.8762	2.57207
72.0208	2.57219
72.1618	2.57237
72.3018	2.5726
72.4401	2.57287
72.5814	2.57315
72.7263	2.57343
72.8734	2.5737
73.0205	2.57396
73.1667	2.57424
73.3124	2.5745
73.4582	2.57472
73.6062	2.5748
73.7557	2.5747
73.908	2.57439
74.0631	2.57393
74.2186	2.57332
74.3722	2.57277
74.5226	2.57222
74.6693	2.57171
74.8211	2.57122
74.9755	2.57075
75.1316	2.57035
75.2882	2.56991
75.4434	2.56949
75.6005	2.56909
75.7562	2.56879
75.9096	2.56855
76.0641	2.56845
76.2127	2.56849
76.3589	2.56865
76.5031	2.56892
76.6457	2.56924
76.7865	2.56959
76.923	2.56993
77.0549	2.57028
77.1852	2.57062
77.3149	2.57097
77.4439	2.57132
77.5717	2.57166
77.6982	2.572
77.824	2.57233
77.9503	2.57262
78.0763	2.5729
78.2018	2.57318
78.3249	2.57345
78.4498	2.57367
78.5758	2.57374
78.7045	2.57369
78.8346	2.5735
78.9679	2.57318
79.1035	2.5728
79.2402	2.57244
79.375	2.5721
79.5083	2.57181
79.6413	2.57154
79.7721	2.5713
79.8991	2.57108
80.0237	2.57088
80.1463	2.57071
80.2685	2.57055
80.3915	2.5704
80.5153	2.57026
80.6433	2.57013
80.7718	2.57
80.8999	2.56989
81.0269	2.56978
81.1525	2.56968
81.2759	2.56958
81.3962	2.56947
81.5178	2.56935
81.634	2.56922
81.7496	2.56908
81.8647	2.56895
81.9763	2.56871
82.0854	2.56872
82.1938	2.56882
82.3032	2.56901
82.4126	2.56927
82.5246	2.5696
82.6365	2.56997
82.7485	2.57037
82.8614	2.57076
82.9755	2.57127
83.0908	2.57162
83.2056	2.57191
83.3205	2.57215
83.4349	2.5723
83.5511	2.57234
83.6652	2.57231
83.7775	2.57222
83.8881	2.57209
83.9989	2.5719
84.1108	2.57168
84.2261	2.57141
84.3392	2.5711
84.4513	2.57075
84.5583	2.57038
84.662	2.56999
84.7666	2.56959
84.8692	2.5692
84.9739	2.56885
85.0805	2.5685
85.1866	2.56816
85.2967	2.56782
85.4089	2.56756
85.5224	2.5674
85.6368	2.56744
85.7521	2.56769
85.8701	2.5681
85.9919	2.56861
86.1174	2.56915
86.2418	2.56969
86.3664	2.57018
86.4881	2.57065
86.6069	2.57107
86.7267	2.57153
86.8457	2.57188
86.966	2.57219
87.0876	2.57247
87.2099	2.57273
87.331	2.57295
87.4509	2.57314
87.5698	2.57331
87.6898	2.57344
87.8111	2.57355
87.9337	2.57359
88.0574	2.57353
88.182	2.57334
88.3079	2.57304
88.4359	2.57263
88.5673	2.57216
88.7008	2.57168
88.8347	2.57123
88.9692	2.57082
89.1041	2.57046
89.2402	2.57013
89.3754	2.56988
89.5094	2.56967
89.6416	2.56952
89.7739	2.56944
89.9084	2.56939
90.0452	2.56939
90.1825	2.5694
90.3199	2.56942
90.4553	2.56944
90.5918	2.56947
90.7277	2.56952
90.8627	2.5695
90.999	2.56946
91.1363	2.56938
91.2713	2.56928
91.403	2.56916
91.5333	2.56903
91.6616	2.5689
91.7881	2.56876
91.9138	2.56863
92.0411	2.5685
92.1673	2.56839
92.294	2.56829
92.4211	2.56819
92.5487	2.56811
92.6762	2.56806
92.8009	2.56802
92.924	2.56802
93.0468	2.56795
93.1689	2.56803
93.2906	2.56815
93.4134	2.56833
93.5358	2.56857
93.6606	2.56886
93.7847	2.56921
93.9078	2.5696
94.0321	2.56998
94.1568	2.57047
94.2823	2.57071
94.4079	2.57084
94.5329	2.57085
94.6552	2.57075
94.7754	2.57056
94.8944	2.57027
95.0139	2.56994
95.1328	2.56956
95.251	2.56913
95.371	2.56872
95.4904	2.56831
95.6091	2.56791
95.7269	2.56754
95.8429	2.5672
95.9601	2.56688
96.0791	2.56658
96.1964	2.56632
96.3101	2.5661
96.4203	2.56593
96.5289	2.56582
96.638	2.56578
96.7469	2.56587
96.8552	2.566
96.9624	2.56619
97.0673	2.56645
97.1695	2.56676
97.2719	2.56712
97.3766	2.56754
97.4844	2.56801
97.5944	2.56853
97.7066	2.56901
97.8196	2.56945
97.9337	2.56973
98.0484	2.56982
98.162	2.56979
98.276	2.56967
98.3914	2.56957
98.5088	2.56951
98.6258	2.56948
98.7409	2.56948
98.8564	2.5695
98.9705	2.56955
99.0837	2.56958
99.197	2.56961
99.3115	2.56962
99.4277	2.56961
99.5419	2.56963
99.6527	2.56963
99.7625	2.56963
99.8738	2.5696
99.9886	2.56955
100.108	2.56946
100.233	2.56936
100.36	2.56919
100.488	2.56899
100.617	2.56878
100.744	2.56854
100.867	2.56834
100.99	2.56815
101.115	2.56799
101.245	2.56783
101.372	2.56769
101.501	2.56755
101.63	2.56741
101.761	2.56727
101.893	2.56709
102.026	2.56691
102.159	2.56672
102.292	2.56653
102.423	2.56634
102.553	2.56616
102.684	2.56599
102.819	2.56586
102.957	2.56581
103.094	2.56585
103.231	2.56599
103.368	2.56623
103.506	2.56654
103.646	2.56691
103.787	2.5673
103.928	2.56769
104.065	2.56806
104.204	2.56838
104.343	2.56868
104.484	2.56894
104.624	2.56919
104.761	2.5694
104.899	2.56962
105.036	2.56982
105.17	2.56999
105.307	2.57022
105.447	2.5703
105.588	2.57033
105.731	2.5703
105.873	2.57021
106.016	2.57005
106.159	2.56983
106.301	2.56956
106.445	2.56925
106.59	2.5689
106.736	2.56852
106.881	2.56813
107.023	2.56772
107.16	2.56732
107.295	2.56692
107.426	2.56654
107.555	2.56619
107.685	2.56586
107.814	2.56558
107.942	2.56534
108.066	2.56517
108.193	2.56507
108.322	2.56503
108.451	2.56505
108.583	2.56514
108.716	2.56531
108.849	2.56552
108.981	2.56583
109.111	2.56614
109.242	2.56648
109.375	2.56683
109.51	2.5671
109.648	2.56738
109.79	2.56762
109.93	2.56781
110.066	2.56795
110.197	2.56801
110.328	2.568
110.456	2.56792
110.581	2.56778
110.703	2.56757
110.824	2.56729
110.945	2.56696
111.067	2.56658
111.186	2.56614
111.303	2.56564
111.42	2.56508
111.537	2.5645
111.655	2.56389
111.774	2.56328
111.892	2.56268
112.011	2.56209
112.13	2.56159
112.249	2.56116
112.369	2.56084
112.49	2.56061
112.609	2.56047
112.729	2.56044
112.847	2.56045
112.963	2.56061
113.077	2.56086
113.191	2.5612
113.305	2.56155
113.421	2.56199
113.538	2.56243
113.658	2.56288
113.781	2.56333
113.903	2.56372
114.023	2.56404
114.141	2.56431
114.262	2.56455
114.383	2.56472
114.506	2.56485
114.63	2.56492
114.756	2.56495
114.88	2.56496
115.001	2.56492
115.124	2.56486
115.251	2.56478
115.377	2.56468
115.504	2.56458
115.631	2.56446
115.762	2.56432
115.892	2.56412
116.024	2.56382
116.154	2.56349
116.285	2.56312
116.417	2.56274
116.551	2.56235
116.686	2.56194
116.82	2.56158
116.952	2.5613
117.081	2.56109
117.21	2.56094
117.342	2.56087
117.475	2.56085
117.603	2.5609
117.73	2.56096
117.858	2.56106
117.985	2.56119
118.111	2.56134
118.235	2.5615
118.359	2.56168
118.484	2.56186
118.607	2.56205
118.73	2.56223
118.853	2.56241
118.977	2.56258
119.099	2.56274
119.222	2.56289
119.347	2.56305
119.472	2.56319
119.596	2.56332
119.721	2.56343
119.85	2.56355
119.983	2.56361
120.117	2.56365
120.252	2.56368
120.388	2.56367
120.523	2.56365
120.658	2.5636
120.794	2.56348
120.927	2.5633
121.062	2.56306
121.195	2.56276
121.328	2.56238
121.459	2.5619
121.589	2.56135
121.717	2.56079
121.842	2.56021
121.965	2.55963
122.085	2.55907
122.203	2.55854
122.322	2.55809
122.444	2.55775
122.569	2.55753
122.694	2.5574
122.818	2.55739
122.941	2.55749
123.064	2.55767
123.186	2.5579
123.312	2.55819
123.441	2.55849
123.571	2.5588
123.702	2.5591
123.833	2.55942
123.967	2.55975
124.102	2.56009
124.239	2.56045
124.377	2.56084
124.516	2.5612
124.655	2.56155
124.792	2.56183
124.927	2.56205
125.064	2.5622
125.202	2.56226
125.34	2.56223
125.478	2.56209
125.616	2.56194
125.752	2.56169
125.889	2.56139
126.026	2.56106
126.161	2.56073
126.294	2.5604
126.427	2.56009
126.561	2.55981
126.696	2.55955
126.832	2.5593
126.969	2.55907
127.105	2.55885
127.24	2.55864
127.375	2.55843
127.505	2.55822
127.633	2.55804
127.76	2.55785
127.885	2.55767
128.009	2.55752
128.134	2.55736
128.259	2.55723
128.38	2.55712
128.499	2.55703
128.619	2.55697
128.737	2.55692
128.854	2.55687
128.973	2.55683
129.091	2.55675
129.211	2.55664
129.331	2.55649
129.452	2.55633
129.573	2.5562
129.693	2.55606
129.815	2.55592
129.937	2.55577
130.06	2.55563
130.183	2.55548
130.304	2.55531
130.422	2.55515
130.54	2.555
130.657	2.55483
130.775	2.55465
130.895	2.55447
131.015	2.55428
131.137	2.55408
131.261	2.55389
131.387	2.5537
131.512	2.55351
131.64	2.55337
131.77	2.55321
131.9	2.55309
132.028	2.55299
132.156	2.55295
132.283	2.55297
132.411	2.55302
132.54	2.55314
132.666	2.55328
132.788	2.5535
132.903	2.55375
133.013	2.55404
133.12	2.55435
133.227	2.55464
133.334	2.55492
133.437	2.5552
133.539	2.55546
133.64	2.5557
133.741	2.55593
133.844	2.55615
133.95	2.55639
134.058	2.55659
134.167	2.55672
134.278	2.55682
134.391	2.55684
134.505	2.55681
134.617	2.55669
134.73	2.55647
134.843	2.55614
134.956	2.55568
135.072	2.55499
135.188	2.55435
135.307	2.55368
135.427	2.553
135.547	2.55232
135.668	2.55168
135.79	2.5511
135.913	2.55058
136.038	2.55014
136.167	2.54974
136.299	2.54938
136.432	2.54905
136.568	2.54872
136.704	2.54838
136.843	2.54807
136.983	2.54778
137.125	2.54752
137.265	2.54727
137.41	2.54705
137.556	2.54686
137.699	2.54669
137.845	2.54655
137.993	2.54641
138.14	2.54628
138.288	2.54617
138.435	2.54605
138.583	2.54594
138.729	2.54582
138.875	2.54568
139.021	2.54553
139.165	2.54536
139.307	2.54519
139.448	2.54504
139.588	2.54491
139.728	2.54483
139.87	2.5448
140.014	2.54482
140.157	2.54487
140.303	2.54496
140.446	2.54507
140.589	2.54519
140.73	2.54534
140.87	2.54549
141.011	2.54563
141.154	2.54578
141.3	2.54591
141.445	2.54604
141.588	2.54616
141.733	2.54629
141.876	2.54642
142.021	2.54655
142.166	2.54667
142.307	2.54676
142.449	2.54682
142.593	2.54684
142.742	2.54682
142.894	2.54679
143.046	2.54672
143.197	2.54662
143.347	2.5465
143.498	2.54634
143.651	2.54602
143.804	2.5458
143.956	2.54559
144.108	2.54539
144.26	2.54523
144.41	2.54507
144.557	2.54489
144.702	2.54463
144.843	2.54429
144.986	2.54382
145.13	2.54329
145.276	2.54263
145.421	2.54186
145.567	2.54097
145.712	2.53997
145.856	2.53889
146	2.53778
146.143	2.53663
146.286	2.53547
146.427	2.53429
146.569	2.53311
146.709	2.53192
146.85	2.53072
146.989	2.52951
147.128	2.52836
147.269	2.52741
147.408	2.52673
147.545	2.52631
147.682	2.5261
147.819	2.52597
147.957	2.52582
148.097	2.52579
148.237	2.52581
148.376	2.52587
148.516	2.52597
148.656	2.52607
148.795	2.52619
148.934	2.52629
149.074	2.52637
149.216	2.52655
149.361	2.52647
149.508	2.52626
149.654	2.52591
149.801	2.52543
149.947	2.5248
150.093	2.52401
150.24	2.52308
150.386	2.52204
150.533	2.52092
150.677	2.51976
150.82	2.51857
150.963	2.51735
151.105	2.5161
151.247	2.51485
151.388	2.51357
151.53	2.51226
151.672	2.51095
151.814	2.5097
151.957	2.50857
152.098	2.50763
152.242	2.50685
152.387	2.50613
152.534	2.50556
152.681	2.50501
152.826	2.50445
152.968	2.50387
153.114	2.5033
153.26	2.50272
153.408	2.50213
153.557	2.50153
153.707	2.50094
153.86	2.50032
154.011	2.49967
154.161	2.49897
154.309	2.4982
154.459	2.49734
154.608	2.49638
154.755	2.4953
154.903	2.4941
155.047	2.49276
155.192	2.49128
155.339	2.48968
155.484	2.48792
155.627	2.48603
155.769	2.48403
155.911	2.48194
156.053	2.47979
156.198	2.47759
156.343	2.47536
156.49	2.4731
156.639	2.4708
156.789	2.46848
156.939	2.46605
157.093	2.46362
157.246	2.46118
157.397	2.45876
157.55	2.45642
157.7	2.45426
157.85	2.45225
157.998	2.45037
158.144	2.44868
158.29	2.44688
158.437	2.44509
158.583	2.44329
158.729	2.44145
158.873	2.43961
159.016	2.43779
159.159	2.43603
159.301	2.43434
159.443	2.4327
159.586	2.43111
159.728	2.42955
159.869	2.42799
160.01	2.4264
160.149	2.42475
160.289	2.42299
160.428	2.42109
160.568	2.41903
160.709	2.41678
160.852	2.41436
160.995	2.41178
161.139	2.40906
161.285	2.40627
161.43	2.4034
161.575	2.40047
161.723	2.39734
161.869	2.39395
162.016	2.39033
162.163	2.38653
162.311	2.38266
162.46	2.37883
162.61	2.37491
162.756	2.37097
162.9	2.36702
163.04	2.36306
163.176	2.35914
163.311	2.35524
163.443	2.3514
163.576	2.34766
163.712	2.34405
163.851	2.34057
163.992	2.33724
164.133	2.33404
164.272	2.33098
164.409	2.32805
164.545	2.32524
164.679	2.32256
164.815	2.31996
164.952	2.3174
165.091	2.31485
165.231	2.3123
165.372	2.30975
165.515	2.30718
165.66	2.30457
165.804	2.30193
165.95	2.29925
166.094	2.29651
166.243	2.29363
166.397	2.29054
166.551	2.28715
166.705	2.28344
166.857	2.27949
167.006	2.27516
167.154	2.27058
167.3	2.26577
167.444	2.26073
167.588	2.25543
167.73	2.24988
167.87	2.24407
168.013	2.23805
168.156	2.23184
168.297	2.22548
168.436	2.219
168.576	2.21245
168.715	2.20589
168.855	2.19937
168.996	2.19293
169.135	2.18661
169.272	2.1804
169.406	2.17433
169.537	2.16837
169.67	2.16252
169.804	2.1568
169.938	2.15117
170.072	2.14565
170.206	2.14014
170.343	2.13466
170.479	2.12921
170.616	2.12377
170.753	2.11837
170.887	2.11296
171.022	2.10757
171.157	2.10222
171.292	2.09683
171.428	2.09141
171.566	2.08592
171.704	2.08027
171.843	2.07439
171.984	2.06831
172.13	2.06205
172.272	2.05567
172.412	2.04924
172.551	2.04275
172.688	2.03621
172.827	2.02964
172.966	2.02301
173.104	2.01636
173.244	2.00967
173.387	2.00296
173.536	1.99625
173.687	1.98955
173.837	1.98289
173.987	1.97628
174.135	1.96975
174.28	1.96333
174.423	1.95701
174.562	1.9508
174.701	1.94473
174.842	1.9388
174.986	1.93303
175.13	1.92739
175.276	1.92185
175.422	1.91637
175.57	1.91094
175.715	1.9055
175.854	1.90008
175.99	1.89465
176.124	1.8892
176.257	1.88374
176.391	1.8783
176.526	1.87288
176.661	1.86748
176.794	1.86208
176.925	1.85669
177.054	1.85128
177.185	1.84582
177.317	1.84026
177.452	1.83449
177.589	1.82843
177.728	1.82205
177.869	1.81533
178.01	1.80829
178.153	1.80092
178.297	1.79324
178.44	1.78526
178.585	1.77701
178.731	1.76851
178.879	1.75982
179.03	1.751
179.182	1.74212
179.331	1.73319
179.476	1.72424
179.621	1.71527
179.765	1.70633
179.908	1.69741
180.053	1.68852
180.197	1.67967
180.339	1.67088
180.482	1.66216
180.625	1.65353
180.767	1.64505
180.907	1.63672
181.047	1.62859
181.186	1.62071
181.326	1.61308
181.468	1.60573
181.611	1.59866
181.753	1.59186
181.893	1.58534
182.032	1.57905
182.171	1.57297
182.31	1.56705
182.45	1.56126
182.589	1.55554
182.728	1.54987
182.871	1.54419
183.017	1.53851
183.165	1.53283
183.314	1.52715
183.464	1.52146
183.613	1.51578
183.765	1.51012
183.918	1.50447
184.073	1.49884
184.228	1.49318
184.38	1.48756
184.531	1.48192
184.683	1.47623
184.833	1.4705
184.985	1.4647
185.138	1.45884
185.292	1.45293
185.446	1.44697
185.599	1.44096
185.748	1.43492
185.896	1.42884
186.042	1.42271
186.187	1.41655
186.333	1.41037
186.482	1.40412
186.634	1.39782
186.79	1.39143
186.949	1.38497
187.105	1.3784
187.257	1.37174
187.409	1.36497
187.561	1.3581
187.712	1.3512
187.862	1.34426
188.009	1.33728
188.15	1.3303
188.287	1.32333
188.42	1.31635
188.549	1.30934
188.676	1.30231
188.799	1.29526
188.921	1.28818
189.041	1.28106
189.159	1.27391
189.277	1.26671
189.394	1.25947
189.509	1.25221
189.625	1.24494
189.741	1.23767
189.857	1.23037
189.977	1.22306
190.101	1.21572
190.23	1.20836
190.362	1.20096
190.496	1.19352
190.631	1.18606
190.767	1.17854
190.903	1.17099
191.042	1.16341
191.182	1.15583
191.324	1.14826
191.467	1.14076
191.61	1.13347
191.752	1.12637
191.893	1.11951
192.032	1.11291
192.171	1.10659
192.309	1.10056
192.449	1.09482
192.591	1.08935
192.733	1.08418
192.876	1.07925
193.018	1.07454
193.158	1.07
193.293	1.06554
193.427	1.06117
193.562	1.05685
193.698	1.05257
193.835	1.04829
193.973	1.04396
194.109	1.03955
194.242	1.03502
194.375	1.03034
194.509	1.0255
194.645	1.02051
194.781	1.01536
194.919	1.0101
195.057	1.00467
195.194	0.99907
195.331	0.993288
195.47	0.987323
195.611	0.981182
195.754	0.97488
195.897	0.968434
196.041	0.961933
196.183	0.955285
196.324	0.948523
196.462	0.94169
196.597	0.9348
196.73	0.927845
196.864	0.920829
196.995	0.913762
197.125	0.906652
197.257	0.899485
197.391	0.892276
197.521	0.885043
197.649	0.877783
197.778	0.870535
197.906	0.863294
198.036	0.856077
198.169	0.848898
198.304	0.841752
198.439	0.834679
198.575	0.827671
198.712	0.820746
198.852	0.813907
198.994	0.807149
199.138	0.80049
199.281	0.793904
199.424	0.787388
199.567	0.78093
199.713	0.774524
199.86	0.768177
200.006	0.761898
200.152	0.755689
200.298	0.749578
200.444	0.743573
200.59	0.737667
200.736	0.731891
200.883	0.726257
201.031	0.720763
201.177	0.7154
201.322	0.71009
201.467	0.704867
201.605	0.699677
201.738	0.694477
201.864	0.689223
201.988	0.6839
202.113	0.678513
202.24	0.67303
202.368	0.667464
202.497	0.661795
202.629	0.65603
202.762	0.650171
202.897	0.644209
203.033	0.638136
203.167	0.631951
203.298	0.625664
203.429	0.619283
203.559	0.61283
203.687	0.606343
203.812	0.599811
203.936	0.593278
204.057	0.586766
204.176	0.580281
204.294	0.573803
204.417	0.567477
204.539	0.561171
204.66	0.554925
204.782	0.548741
204.908	0.542619
205.037	0.536571
205.167	0.530531
205.297	0.524547
205.426	0.5186
205.553	0.512684
205.677	0.506765
205.798	0.500832
205.92	0.494869
206.043	0.488872
206.168	0.482826
206.297	0.476765
206.43	0.470739
206.566	0.464816
206.701	0.459009
206.835	0.453304
206.973	0.44765
207.112	0.441996
207.25	0.436328
207.391	0.430684
207.532	0.425124
207.675	0.419675
207.817	0.414359
207.959	0.409187
208.105	0.404154
208.255	0.399251
208.406	0.394503
208.559	0.390002
208.71	0.385527
208.861	0.381209
209.008	0.377057
209.153	0.373068
209.298	0.36926
209.441	0.365625
209.584	0.362062
209.727	0.358683
209.864	0.35543
209.996	0.352289
210.128	0.349203
210.262	0.346201
210.398	0.343253
210.534	0.34034
210.668	0.337443
210.8	0.334561
210.93	0.331687
211.06	0.328805
211.192	0.325921
211.331	0.322988
211.468	0.320018
211.608	0.317003
211.752	0.313951
211.902	0.310871
212.053	0.30773
212.203	0.304541
212.349	0.301296
212.495	0.298015
212.641	0.294704
212.782	0.291337
212.921	0.287967
213.058	0.284533
213.193	0.281202
213.328	0.277985
213.469	0.274962
213.612	0.272103
213.76	0.269414
213.912	0.266791
214.067	0.264171
214.224	0.261554
214.382	0.258957
214.539	0.256358
214.693	0.253758
214.841	0.251193
214.987	0.248651
215.13	0.246142
215.271	0.243685
215.408	0.241326
215.543	0.23905
215.678	0.236907
215.815	0.234896
215.95	0.233019
216.084	0.231286
216.216	0.229687
216.347	0.228214
216.476	0.226867
216.604	0.225626
216.734	0.224509
216.861	0.223508
216.988	0.22261
217.115	0.221819
217.244	0.22112
217.374	0.22049
217.502	0.219946
217.627	0.219488
217.754	0.21903
217.885	0.218647
218.02	0.218444
218.157	0.218285
218.295	0.218291
218.433	0.21835
218.568	0.218392
218.699	0.218399
218.829	0.218344
218.96	0.218239
219.094	0.21811
219.232	0.21795
219.376	0.217745
219.521	0.217534
219.668	0.217296
219.814	0.217044
219.959	0.21679
220.105	0.216536
220.257	0.216273
220.415	0.215932
220.571	0.215474
220.723	0.21489
220.87	0.214198
221.015	0.213461
221.16	0.212745
221.308	0.212076
221.454	0.211462
221.599	0.210878
221.743	0.210316
221.881	0.209785
222.019	0.20928
222.158	0.208764
222.295	0.208332
222.43	0.207893
222.563	0.207375
222.694	0.207011
222.826	0.206642
222.959	0.206282
223.092	0.205914
223.227	0.205509
223.361	0.205072
223.495	0.204639
223.63	0.204185
223.765	0.203737
223.901	0.203293
224.04	0.202904
224.178	0.202522
224.313	0.20219
224.447	0.201895
224.58	0.201654
224.715	0.201444
224.855	0.201288
225	0.201181
225.15	0.201121
225.299	0.201118
225.449	0.201171
225.601	0.201287
225.758	0.201448
225.914	0.201675
226.07	0.201965
226.225	0.202312
226.379	0.202726
226.533	0.203167
226.692	0.203709
226.852	0.204218
227.012	0.20474
227.174	0.205308
227.336	0.205802
227.496	0.206176
227.653	0.206352
227.81	0.206355
227.963	0.206213
228.114	0.205989
228.262	0.205749
228.411	0.205498
228.557	0.205211
228.698	0.2049
228.838	0.204573
228.977	0.204203
229.118	0.203809
229.261	0.203371
229.406	0.202917
229.556	0.202427
229.71	0.201956
229.863	0.201469
230.013	0.200979
230.16	0.200537
230.302	0.200192
230.444	0.200049
230.59	0.200126
230.735	0.200384
230.88	0.200763
231.024	0.201187
231.166	0.201636
231.306	0.202099
231.448	0.202511
231.592	0.202986
231.739	0.203443
231.891	0.203931
232.045	0.204369
232.201	0.204841
232.356	0.205253
232.512	0.205519
232.666	0.205644
232.819	0.205639
232.97	0.205557
233.122	0.205478
233.277	0.205408
233.434	0.205345
233.594	0.205292
233.755	0.205227
233.916	0.205141
234.074	0.205059
234.228	0.204949
234.382	0.204818
234.537	0.204684
234.692	0.204542
234.845	0.204381
234.995	0.204197
235.143	0.204012
235.289	0.203812
235.437	0.203593
235.585	0.203361
235.733	0.203165
235.883	0.203081
236.035	0.203147
236.186	0.203355
236.335	0.203649
236.481	0.203969
236.624	0.204286
236.768	0.204595
236.908	0.204915
237.046	0.205198
237.185	0.205482
237.327	0.20575
237.469	0.205987
237.615	0.206221
237.762	0.206401
237.909	0.206591
238.056	0.206756
238.205	0.206916
238.353	0.20706
238.501	0.207195
238.649	0.207318
238.797	0.207422
238.944	0.207516
239.092	0.207603
239.244	0.207662
239.399	0.20772
239.556	0.207756
239.717	0.207783
239.879	0.20778
240.039	0.20775
240.199	0.207693
240.357	0.207596
240.513	0.207474
240.667	0.207327
240.815	0.207155
240.959	0.206939
241.101	0.206679
241.244	0.206384
241.387	0.206071
241.53	0.205724
241.668	0.205294
241.801	0.20492
241.938	0.2046
242.075	0.204346
242.213	0.204163
242.352	0.204077
242.491	0.204081
242.625	0.20415
242.759	0.204255
242.888	0.204417
243.014	0.204615
243.14	0.204853
243.267	0.205141
243.397	0.205436
243.526	0.205734
243.656	0.20606
243.791	0.206412
243.93	0.206793
244.067	0.207179
244.204	0.207609
244.339	0.208051
244.475	0.208525
244.613	0.209024
244.753	0.209527
244.896	0.209955
245.043	0.210214
245.191	0.210299
245.34	0.210231
245.49	0.210079
245.639	0.209918
245.785	0.209751
245.929	0.209546
246.071	0.209446
246.209	0.209316
246.346	0.20922
246.481	0.209092
246.612	0.208971
246.74	0.208808
246.868	0.20864
246.994	0.208451
247.124	0.208242
247.257	0.208016
247.391	0.207784
247.527	0.207538
247.662	0.207307
247.791	0.207121
247.922	0.207008
248.053	0.206992
248.184	0.20708
248.314	0.207257
248.447	0.207515
248.582	0.207864
248.719	0.208281
248.859	0.208748
249.001	0.209267
249.145	0.209819
249.287	0.210394
249.43	0.210976
249.576	0.211568
249.724	0.212162
249.875	0.212698
250.025	0.213114
250.171	0.213365
250.316	0.213581
250.458	0.213589
250.596	0.213597
250.734	0.21364
250.874	0.213671
251.014	0.213721
251.154	0.213747
251.295	0.213781
251.438	0.213812
251.584	0.213849
251.731	0.213875
251.883	0.213903
252.037	0.213892
252.191	0.213876
252.343	0.21381
252.495	0.213723
252.646	0.21359
252.797	0.21342
252.948	0.213219
253.099	0.212976
253.251	0.212717
253.403	0.21244
253.553	0.21216
253.699	0.211903
253.843	0.211768
253.987	0.211812
254.132	0.212031
254.276	0.212388
254.419	0.212791
254.563	0.213195
254.708	0.213579
254.852	0.213976
254.996	0.214352
255.136	0.214733
255.275	0.215139
255.411	0.215489
255.544	0.215896
255.676	0.216319
255.808	0.216787
255.937	0.217208
256.063	0.217603
256.189	0.217927
256.315	0.218169
256.445	0.218321
256.573	0.218404
256.705	0.218452
256.838	0.218456
256.968	0.218433
257.096	0.21838
257.225	0.218295
257.356	0.21821
257.494	0.218115
257.635	0.217997
257.779	0.21785
257.921	0.217692
258.064	0.217526
258.207	0.217324
258.355	0.217098
258.506	0.216855
258.661	0.216597
258.821	0.216323
258.982	0.21615
259.139	0.216131
259.292	0.216258
259.443	0.21652
259.594	0.21684
259.743	0.217161
259.89	0.217487
260.034	0.217854
260.179	0.218183
260.32	0.218482
260.46	0.218774
260.601	0.219063
260.745	0.219339
260.895	0.21963
261.044	0.219909
261.196	0.220205
261.35	0.220526
261.504	0.220871
261.658	0.221247
261.811	0.221649
261.958	0.22206
262.103	0.222446
262.247	0.222784
262.391	0.223052
262.536	0.223253
262.677	0.223369
262.82	0.223435
262.967	0.223438
263.118	0.223399
263.266	0.223314
263.411	0.22317
263.552	0.22299
263.691	0.222785
263.828	0.222544
263.966	0.22229
264.109	0.222009
264.259	0.221714
264.413	0.221398
264.568	0.221083
264.722	0.220663
264.874	0.220441
265.023	0.220341
265.169	0.220337
265.311	0.220463
265.453	0.220692
265.599	0.220942
265.749	0.221201
265.898	0.221439
266.048	0.221668
266.197	0.221913
266.347	0.222169
266.494	0.222433
266.64	0.222693
266.788	0.222975
266.937	0.223255
267.088	0.22357
267.241	0.22391
267.392	0.224274
267.542	0.224663
267.692	0.225058
267.845	0.225504
268.005	0.225949
268.169	0.226383
268.333	0.226712
268.495	0.226885
268.656	0.226892
268.815	0.226755
268.975	0.226609
269.133	0.226464
269.287	0.226343
269.437	0.226209
269.583	0.226093
269.72	0.225977
269.852	0.225832
269.978	0.225713
270.101	0.225563
270.229	0.225392
270.36	0.225238
270.494	0.225152
270.626	0.225087
270.757	0.225093
270.89	0.225165
271.027	0.225295
271.17	0.225473
271.316	0.225677
271.458	0.225928
271.595	0.226192
271.728	0.226459
271.86	0.226736
271.995	0.227014
272.13	0.227325
272.266	0.227646
272.406	0.227974
272.545	0.228295
272.684	0.22862
272.828	0.22897
272.975	0.229321
273.118	0.229689
273.259	0.230077
273.398	0.230481
273.54	0.23082
273.684	0.231014
273.828	0.231116
273.966	0.231105
274.108	0.231061
274.253	0.231023
274.401	0.230981
274.553	0.230983
274.709	0.23098
274.864	0.230979
275.015	0.230957
275.159	0.230962
275.296	0.231013
275.429	0.231039
275.566	0.23107
275.705	0.231105
275.849	0.23113
275.998	0.231144
276.147	0.23113
276.293	0.231084
276.436	0.231007
276.576	0.230932
276.722	0.230861
276.87	0.230811
277.018	0.230755
277.169	0.230731
277.323	0.230728
277.482	0.230759
277.644	0.230815
277.808	0.230911
277.969	0.231052
278.129	0.231252
278.289	0.231478
278.451	0.231761
278.612	0.232076
278.767	0.232451
278.915	0.232878
279.06	0.233351
279.206	0.233863
279.354	0.234417
279.494	0.234926
279.632	0.235353
279.77	0.235684
279.909	0.235928
280.047	0.23613
280.187	0.236325
280.329	0.236504
280.475	0.236682
280.623	0.236856
280.772	0.236987
280.92	0.237104
281.062	0.237223
281.2	0.237353
281.335	0.23749
281.47	0.237594
281.606	0.237668
281.745	0.237706
281.883	0.237713
282.02	0.237641
282.155	0.237558
282.294	0.237424
282.435	0.237255
282.577	0.237075
282.716	0.236878
282.852	0.236671
282.99	0.236491
283.126	0.236385
283.26	0.236305
283.394	0.236507
283.528	0.236881
283.665	0.237366
283.802	0.237915
283.944	0.23851
284.09	0.239115
284.232	0.239721
284.37	0.240297
284.502	0.240842
284.632	0.241321
284.765	0.241691
284.896	0.241977
285.03	0.242154
285.162	0.242214
285.295	0.242209
285.429	0.24212
285.563	0.241954
285.701	0.241717
285.84	0.241449
285.985	0.241165
286.135	0.240892
286.284	0.240641
286.435	0.240395
286.583	0.240155
286.727	0.239888
286.868	0.239748
287.007	0.239776
287.145	0.239969
287.28	0.240314
287.414	0.240733
287.551	0.241169
287.692	0.241594
287.834	0.241988
287.973	0.242387
288.106	0.242738
288.232	0.243064
288.353	0.243355
288.476	0.243635
288.603	0.243912
288.729	0.244142
288.851	0.244328
288.974	0.244495
289.103	0.244613
289.234	0.244637
289.365	0.24457
289.496	0.244487
289.621	0.244362
289.746	0.244217
289.87	0.244071
289.994	0.243914
290.121	0.243756
290.249	0.243616
290.378	0.243537
290.506	0.243563
290.634	0.243763
290.76	0.244092
290.886	0.244519
291.014	0.244964
291.143	0.245397
291.27	0.245786
291.393	0.246147
291.511	0.246477
291.627	0.246783
291.74	0.247066
291.852	0.247343
291.959	0.247584
292.06	0.247807
292.159	0.248
292.259	0.248171
292.356	0.248298
292.453	0.248359
292.547	0.248333
292.64	0.248293
292.736	0.248169
292.828	0.247931
292.918	0.247743
293.01	0.24749
293.099	0.247218
293.187	0.246964
293.271	0.246716
293.351	0.246489
293.428	0.246312
293.508	0.246153
293.59	0.245977
293.675	0.245824
293.763	0.245684
293.848	0.245605
293.93	0.245548
294.012	0.245526
294.089	0.245521
294.165	0.245601
294.241	0.245771
294.317	0.246097
294.397	0.246555
294.477	0.247128
294.547	0.247766
294.613	0.248402
294.674	0.249026
294.738	0.249602
294.804	0.250217
294.87	0.250481
294.938	0.250593
295.01	0.250623
295.082	0.250597
295.151	0.250553
295.215	0.250495
295.272	0.25043
295.324	0.250331
295.37	0.250198
295.411	0.250005
295.455	0.249762
295.502	0.249487
295.549	0.249182
295.594	0.248923
295.635	0.248684
295.676	0.248502
295.717	0.248396
295.757	0.248326
295.796	0.248285
295.837	0.248315
295.874	0.248467
295.916	0.248776
295.963	0.249228
296.012	0.249787
296.055	0.250476
296.097	0.251045
296.142	0.251445
296.19	0.251685
296.238	0.25181
296.282	0.251859
296.324	0.251889
296.361	0.251892
296.396	0.251898
296.433	0.251895
296.475	0.251881
296.526	0.251851
296.582	0.251807
296.642	0.251705
296.704	0.251561
296.769	0.251375
296.833	0.251176
296.897	0.250957
296.958	0.250758
297.016	0.25062
297.073	0.250548
297.132	0.250517
297.195	0.250533
297.261	0.250576
297.326	0.250636
297.389	0.250799
297.451	0.251137
297.51	0.251611
297.567	0.252172
297.622	0.252644
297.676	0.252943
297.732	0.253089
297.788	0.253132
297.841	0.253129
297.891	0.253121
297.936	0.253133
297.983	0.253155
298.033	0.253196
298.086	0.253251
298.141	0.253299
298.196	0.25334
298.248	0.253386
298.293	0.253408
298.335	0.253441
298.37	0.253415
298.402	0.253354
298.439	0.253295
298.479	0.25321
298.518	0.253065
298.551	0.252909
298.581	0.252848
298.611	0.252664
298.64	0.252511
298.665	0.252392
298.687	0.252293
298.709	0.252224
298.731	0.252176
298.751	0.252142
298.773	0.252146
298.799	0.252217
298.83	0.252359
298.862	0.252615
298.893	0.252956
298.924	0.253383
298.959	0.253853
298.997	0.254329
299.04	0.254791
299.084	0.255144
299.129	0.255349
299.172	0.255437
299.216	0.255413
299.256	0.255338
299.294	0.255278
299.328	0.255216
299.359	0.255159
299.39	0.25504
299.416	0.254994
299.443	0.254927
299.471	0.254848
299.498	0.254795
299.531	0.254723
299.564	0.254648
299.599	0.254566
299.635	0.254509
299.673	0.254474
299.715	0.254489
299.753	0.254521
299.791	0.254575
299.826	0.254657
299.854	0.25474
299.873	0.254812
299.889	0.254891
299.908	0.254951
299.929	0.255003
299.95	0.255061
299.969	0.255096
299.985	0.255142
299.997	0.255178
300.007	0.255212
300.016	0.255252
300.028	0.255283
300.044	0.255349
300.066	0.255442
300.094	0.255563
300.125	0.255646
300.155	0.255743
300.186	0.255814
300.222	0.255898
300.263	0.255958
300.301	0.255988
300.335	0.255967
300.363	0.255909
300.388	0.255796
300.408	0.25566
300.424	0.255522
300.44	0.255396
300.461	0.2553
300.487	0.255263
300.516	0.255244
300.551	0.255258
300.589	0.255279
300.627	0.255286
300.661	0.255344
300.693	0.25551
300.726	0.255899
300.758	0.256263
300.793	0.256544
300.832	0.256713
300.872	0.256707
300.914	0.256709
300.957	0.256715
301.002	0.256702
301.047	0.256715
301.093	0.256726
301.137	0.256737
301.179	0.256773
301.218	0.256816
301.258	0.256855
301.29	0.256894
301.317	0.256942
301.343	0.256971
301.366	0.256972
301.387	0.256958
301.407	0.256902
301.431	0.256831
301.459	0.256753
301.493	0.256646
301.53	0.256559
301.57	0.256486
301.613	0.256421
301.657	0.256367
301.702	0.256376
301.741	0.256395
301.772	0.256434
301.801	0.25647
301.826	0.256517
301.851	0.256597
301.88	0.256737
301.914	0.256964
301.948	0.257271
301.977	0.257566
302	0.257788
302.016	0.257934
302.032	0.257983
302.053	0.257969
302.082	0.257955
302.113	0.257926
302.14	0.25792
302.166	0.257939
302.19	0.257968
302.219	0.257995
302.251	0.258016
302.285	0.258027
302.316	0.258084
302.347	0.258051
302.377	0.258004
302.402	0.257973
302.419	0.257972
302.43	0.257949
302.44	0.257901
302.452	0.257847
302.461	0.257792
302.466	0.257736
302.469	0.257681
302.474	0.257628
302.484	0.257552
302.495	0.257509
302.504	0.257479
302.517	0.257467
302.536	0.257477
302.56	0.257479
302.583	0.257484
302.609	0.257498
302.634	0.257563
302.656	0.2577
302.677	0.257952
302.696	0.25824
302.714	0.258497
302.728	0.258635
302.741	0.258714
302.755	0.258758
302.763	0.2588
302.769	0.258842
302.774	0.258875
302.785	0.258899
302.798	0.258887
302.81	0.258851
302.821	0.258794
302.83	0.258705
302.839	0.258578
302.85	0.25841
302.86	0.258225
302.868	0.258065
302.881	0.257943
302.898	0.257864
302.915	0.257841
302.934	0.257858
302.953	0.257881
302.975	0.25793
302.996	0.257948
303.011	0.258019
303.022	0.258239
303.026	0.258628
303.032	0.258963
303.038	0.259123
303.045	0.259223
303.051	0.259246
303.06	0.259248
303.069	0.259269
303.078	0.259254
303.088	0.25924
303.094	0.259249
303.101	0.259248
303.104	0.259277
303.097	0.259299
303.088	0.259317
303.081	0.259365
303.077	0.259393
303.074	0.259388
303.07	0.259334
303.062	0.259254
303.055	0.259147
303.052	0.25901
303.052	0.258838
303.055	0.258694
303.062	0.258553
303.071	0.258442
303.083	0.258359
303.098	0.258356
303.114	0.258394
303.128	0.258431
303.138	0.258499
303.149	0.258583
303.158	0.258717
303.166	0.258963
303.171	0.259305
303.177	0.259679
303.18	0.259995
303.181	0.260194
303.181	0.260237
303.178	0.260228
303.178	0.260162
303.18	0.260068
303.182	0.259985
303.185	0.259936
303.184	0.259889
303.182	0.259867
303.18	0.259844
303.179	0.259839
303.174	0.259827
303.166	0.259809
303.158	0.259787
303.15	0.259747
303.147	0.25963
303.147	0.259585
303.147	0.259544
303.149	0.259506
303.153	0.259443
303.154	0.259397
303.15	0.259356
303.142	0.259297
303.131	0.259251
303.122	0.259206
303.113	0.259167
303.104	0.259149
303.093	0.259151
303.086	0.259163
303.082	0.259193
303.079	0.259247
303.075	0.259273
303.072	0.259332
303.068	0.259387
303.063	0.259476
303.056	0.259694
303.053	0.259976
303.056	0.260241
303.062	0.26033
303.072	0.260399
303.081	0.260475
303.086	0.26054
303.089	0.260578
303.096	0.260629
303.107	0.260674
303.123	0.260663
303.144	0.260649
303.167	0.260605
303.196	0.26054
303.224	0.260422
303.255	0.260273
303.292	0.260103
303.328	0.259952
303.357	0.259831
303.386	0.259759
303.414	0.259735
303.44	0.259735
303.463	0.259738
303.485	0.259727
303.503	0.259719
303.513	0.259755
303.52	0.259914
303.522	0.26015
303.519	0.260339
303.512	0.260466
303.508	0.26058
303.509	0.260622
303.512	0.260661
303.518	0.260683
303.525	0.260698
303.532	0.260733
303.539	0.260779
303.546	0.260795
303.551	0.260834
303.555	0.260888
303.565	0.260922
303.58	0.260941
303.602	0.260891
303.622	0.260765
303.641	0.260588
303.657	0.260362
303.668	0.260119
303.677	0.259876
303.685	0.25965
303.693	0.259493
303.704	0.259416
303.719	0.259362
303.739	0.259344
303.762	0.259328
303.783	0.259386
303.807	0.259519
303.836	0.259838
303.865	0.260245
303.899	0.260695
303.935	0.261115
303.975	0.261438
304.017	0.261619
304.054	0.261669
304.089	0.261636
304.122	0.261556
304.152	0.261479
304.183	0.261441
304.219	0.26139
304.252	0.261368
304.285	0.261359
304.321	0.261379
304.357	0.26141
304.393	0.261451
304.427	0.26147
304.456	0.261487
304.477	0.261465
304.487	0.261438
304.491	0.261396
304.493	0.261337
304.493	0.261275
304.489	0.26123
304.484	0.261145
304.48	0.261107
304.473	0.261055
304.465	0.260993
304.458	0.260931
304.447	0.260852
304.435	0.260776
304.423	0.260709
304.412	0.260656
304.396	0.260628
304.375	0.260593
304.351	0.260562
304.338	0.260569
304.325	0.260579
304.309	0.2606
304.298	0.260686
304.292	0.260889
304.292	0.261231
304.297	0.261639
304.307	0.261934
304.318	0.26212
304.329	0.262231
304.336	0.262315
304.339	0.262334
304.339	0.262342
304.336	0.262356
304.333	0.262344
304.33	0.262277
304.33	0.262183
304.335	0.262062
304.343	0.261909
304.357	0.26172
304.38	0.26152
304.402	0.261316
304.42	0.261133
304.43	0.261
304.436	0.260923
304.441	0.260906
304.445	0.260898
304.449	0.260888
304.453	0.260898
304.465	0.260915
304.48	0.260993
304.496	0.261208
304.51	0.261526
304.519	0.261989
304.52	0.262208
304.516	0.262387
304.515	0.262428
304.511	0.26238
304.498	0.262387
304.481	0.262378
304.458	0.262393
304.433	0.262412
304.405	0.262448
304.375	0.262472
304.349	0.262521
304.326	0.262527
304.31	0.262472
304.301	0.262387
304.299	0.262244
304.299	0.262085
304.299	0.261896
304.3	0.261726
304.3	0.261591
304.299	0.467388
304.299	0.46736
304.303	0.467417
304.314	0.467532
304.33	0.467723
304.346	0.468007
304.362	0.46839
304.38	0.46885
304.399	0.46931
304.422	0.469676
304.445	0.469858
304.466	0.469952
304.491	0.469956
304.512	0.469957
304.531	0.469968
304.548	0.470018
304.561	0.470048
304.573	0.470128
304.587	0.470226
304.603	0.470306
304.619	0.470505
304.637	0.470453
304.651	0.470254
304.661	0.469927
304.671	0.469531
304.678	0.469114
304.684	0.468687
304.686	0.468275
304.678	0.467891
304.666	0.467521
304.652	0.467193
304.639	0.46693
304.631	0.466763
304.627	0.466704
304.623	0.466731
304.617	0.466892
304.612	0.467066
304.61	0.467305
304.614	0.467592
304.617	0.467919
304.621	0.468319
304.624	0.468729
304.627	0.469137
304.636	0.469553
304.643	0.470023
304.648	0.47049
304.649	0.470962
304.646	0.471367
304.645	0.471683