Temperature	Strain_p	Strain
299.581000	0.025509	0.000255
299.580000	0.025509	0.000255
299.576000	0.025481	0.000255
299.569000	0.025422	0.000254
299.558000	0.025338	0.000253
299.548000	0.025236	0.000252
299.534000	0.025091	0.000251
299.518000	0.024976	0.000250
299.502000	0.024869	0.000249
299.484000	0.024821	0.000248
299.467000	0.024895	0.000249
299.452000	0.025030	0.000250
299.439000	0.025198	0.000252
299.427000	0.025387	0.000254
299.416000	0.025602	0.000256
299.405000	0.025787	0.000258
299.392000	0.025981	0.000260
299.380000	0.026154	0.000262
299.367000	0.026297	0.000263
299.351000	0.026417	0.000264
299.336000	0.026497	0.000265
299.328000	0.026528	0.000265
299.324000	0.026478	0.000265
299.323000	0.026363	0.000264
299.323000	0.026189	0.000262
299.325000	0.025934	0.000259
299.331000	0.025627	0.000256
299.343000	0.025294	0.000253
299.361000	0.024950	0.000250
299.375000	0.024651	0.000247
299.387000	0.024360	0.000244
299.398000	0.024143	0.000241
299.406000	0.024001	0.000240
299.414000	0.023878	0.000239
299.422000	0.023836	0.000238
299.425000	0.023819	0.000238
299.423000	0.023814	0.000238
299.419000	0.023821	0.000238
299.410000	0.023848	0.000238
299.399000	0.023886	0.000239
299.384000	0.023956	0.000240
299.365000	0.024016	0.000240
299.343000	0.024073	0.000241
299.320000	0.024136	0.000241
299.300000	0.024215	0.000242
299.282000	0.024301	0.000243
299.263000	0.024417	0.000244
299.244000	0.024542	0.000245
299.226000	0.024666	0.000247
299.210000	0.024777	0.000248
299.188000	0.024873	0.000249
299.163000	0.024942	0.000249
299.130000	0.024893	0.000249
299.092000	0.024747	0.000247
299.050000	0.024535	0.000245
299.009000	0.024277	0.000243
298.968000	0.024000	0.000240
298.927000	0.023703	0.000237
298.889000	0.023411	0.000234
298.850000	0.023112	0.000231
298.808000	0.022830	0.000228
298.758000	0.022577	0.000226
298.706000	0.022360	0.000224
298.650000	0.022187	0.000222
298.592000	0.022043	0.000220
298.533000	0.021943	0.000219
298.466000	0.021907	0.000219
298.398000	0.021957	0.000220
298.329000	0.022022	0.000220
298.259000	0.022074	0.000221
298.194000	0.022135	0.000221
298.137000	0.022157	0.000222
298.084000	0.022147	0.000221
298.033000	0.022127	0.000221
297.987000	0.022072	0.000221
297.941000	0.021998	0.000220
297.895000	0.021940	0.000219
297.853000	0.021907	0.000219
297.816000	0.021899	0.000219
297.782000	0.021899	0.000219
297.746000	0.021921	0.000219
297.710000	0.021939	0.000219
297.674000	0.021916	0.000219
297.637000	0.021903	0.000219
297.598000	0.021887	0.000219
297.557000	0.021900	0.000219
297.518000	0.021957	0.000220
297.482000	0.022030	0.000220
297.444000	0.022115	0.000221
297.403000	0.022173	0.000222
297.358000	0.022231	0.000222
297.315000	0.022222	0.000222
297.267000	0.022137	0.000221
297.213000	0.022000	0.000220
297.156000	0.021815	0.000218
297.098000	0.021633	0.000216
297.034000	0.021436	0.000214
296.963000	0.021233	0.000212
296.888000	0.021035	0.000210
296.813000	0.020856	0.000209
296.736000	0.020701	0.000207
296.657000	0.020610	0.000206
296.574000	0.020526	0.000205
296.484000	0.020469	0.000205
296.398000	0.020450	0.000204
296.309000	0.020450	0.000204
296.220000	0.020542	0.000205
296.131000	0.020642	0.000206
296.043000	0.020770	0.000208
295.961000	0.020876	0.000209
295.883000	0.020891	0.000209
295.808000	0.020928	0.000209
295.733000	0.020949	0.000209
295.659000	0.020958	0.000210
295.592000	0.020961	0.000210
295.532000	0.020953	0.000210
295.479000	0.020921	0.000209
295.430000	0.020892	0.000209
295.372000	0.020861	0.000209
295.305000	0.020831	0.000208
295.236000	0.020820	0.000208
295.167000	0.020841	0.000208
295.097000	0.020936	0.000209
295.025000	0.021068	0.000211
294.950000	0.021291	0.000213
294.872000	0.021506	0.000215
294.795000	0.021755	0.000218
294.723000	0.021983	0.000220
294.657000	0.022148	0.000221
294.592000	0.022222	0.000222
294.527000	0.022248	0.000222
294.463000	0.022154	0.000222
294.398000	0.021985	0.000220
294.331000	0.021776	0.000218
294.266000	0.021493	0.000215
294.197000	0.021181	0.000212
294.136000	0.020835	0.000208
294.081000	0.020466	0.000205
294.028000	0.020078	0.000201
293.973000	0.019667	0.000197
293.919000	0.019242	0.000192
293.864000	0.018820	0.000188
293.806000	0.018452	0.000185
293.747000	0.018123	0.000181
293.687000	0.017862	0.000179
293.623000	0.017628	0.000176
293.557000	0.017420	0.000174
293.488000	0.017252	0.000173
293.420000	0.017119	0.000171
293.347000	0.017033	0.000170
293.265000	0.017023	0.000170
293.179000	0.017102	0.000171
293.088000	0.017253	0.000173
292.991000	0.017455	0.000175
292.888000	0.017698	0.000177
292.782000	0.017944	0.000179
292.668000	0.018188	0.000182
292.548000	0.018416	0.000184
292.425000	0.018594	0.000186
292.307000	0.018744	0.000187
292.193000	0.018879	0.000189
292.079000	0.019013	0.000190
291.965000	0.019115	0.000191
291.855000	0.019156	0.000192
291.750000	0.019154	0.000192
291.651000	0.019094	0.000191
291.554000	0.018950	0.000190
291.467000	0.018724	0.000187
291.389000	0.018458	0.000185
291.318000	0.018134	0.000181
291.248000	0.017776	0.000178
291.173000	0.017397	0.000174
291.097000	0.017012	0.000170
291.022000	0.016607	0.000166
290.946000	0.016229	0.000162
290.870000	0.015883	0.000159
290.792000	0.015549	0.000155
290.712000	0.015255	0.000153
290.633000	0.015033	0.000150
290.554000	0.014879	0.000149
290.477000	0.014791	0.000148
290.396000	0.014787	0.000148
290.313000	0.014957	0.000150
290.225000	0.015154	0.000152
290.131000	0.015422	0.000154
290.034000	0.015685	0.000157
289.936000	0.015904	0.000159
289.839000	0.016094	0.000161
289.740000	0.016281	0.000163
289.638000	0.016447	0.000164
289.527000	0.016554	0.000166
289.407000	0.016685	0.000167
289.281000	0.016784	0.000168
289.159000	0.016849	0.000168
289.041000	0.016876	0.000169
288.929000	0.016851	0.000169
288.819000	0.016797	0.000168
288.718000	0.016699	0.000167
288.618000	0.016570	0.000166
288.515000	0.016400	0.000164
288.411000	0.016266	0.000163
288.305000	0.016062	0.000161
288.197000	0.015859	0.000159
288.088000	0.015660	0.000157
287.980000	0.015420	0.000154
287.871000	0.015202	0.000152
287.761000	0.014968	0.000150
287.653000	0.014732	0.000147
287.542000	0.014500	0.000145
287.429000	0.014303	0.000143
287.321000	0.014137	0.000141
287.209000	0.013990	0.000140
287.089000	0.013852	0.000139
286.965000	0.013740	0.000137
286.840000	0.013645	0.000136
286.710000	0.013560	0.000136
286.581000	0.013516	0.000135
286.453000	0.013488	0.000135
286.326000	0.013465	0.000135
286.201000	0.013470	0.000135
286.077000	0.013476	0.000135
285.949000	0.013460	0.000135
285.822000	0.013386	0.000134
285.698000	0.013259	0.000133
285.582000	0.013024	0.000130
285.475000	0.012787	0.000128
285.371000	0.012493	0.000125
285.268000	0.012200	0.000122
285.165000	0.011921	0.000119
285.066000	0.011666	0.000117
284.970000	0.011446	0.000114
284.876000	0.011279	0.000113
284.789000	0.011135	0.000111
284.702000	0.011013	0.000110
284.615000	0.010959	0.000110
284.523000	0.010942	0.000109
284.428000	0.010987	0.000110
284.336000	0.011099	0.000111
284.245000	0.011239	0.000112
284.151000	0.011460	0.000115
284.054000	0.011695	0.000117
283.953000	0.011971	0.000120
283.847000	0.012206	0.000122
283.736000	0.012417	0.000124
283.617000	0.012525	0.000125
283.496000	0.012579	0.000126
283.379000	0.012574	0.000126
283.260000	0.012510	0.000125
283.139000	0.012408	0.000124
283.017000	0.012267	0.000123
282.897000	0.012059	0.000121
282.777000	0.011807	0.000118
282.656000	0.011512	0.000115
282.533000	0.011224	0.000112
282.406000	0.010938	0.000109
282.273000	0.010691	0.000107
282.144000	0.010454	0.000105
282.019000	0.010275	0.000103
281.900000	0.010102	0.000101
281.782000	0.009976	0.000100
281.664000	0.009828	0.000098
281.542000	0.009659	0.000097
281.415000	0.009509	0.000095
281.289000	0.009342	0.000093
281.162000	0.009178	0.000092
281.036000	0.008997	0.000090
280.914000	0.008822	0.000088
280.796000	0.008631	0.000086
280.678000	0.008452	0.000085
280.558000	0.008282	0.000083
280.434000	0.008098	0.000081
280.305000	0.007939	0.000079
280.172000	0.007789	0.000078
280.039000	0.007685	0.000077
279.909000	0.007621	0.000076
279.783000	0.007623	0.000076
279.659000	0.007672	0.000077
279.536000	0.007773	0.000078
279.414000	0.007874	0.000079
279.294000	0.007996	0.000080
279.176000	0.008102	0.000081
279.056000	0.008186	0.000082
278.933000	0.008173	0.000082
278.810000	0.008129	0.000081
278.685000	0.008026	0.000080
278.557000	0.007888	0.000079
278.430000	0.007718	0.000077
278.304000	0.007497	0.000075
278.176000	0.007255	0.000073
278.048000	0.007002	0.000070
277.921000	0.006737	0.000067
277.795000	0.006452	0.000065
277.668000	0.006158	0.000062
277.542000	0.005863	0.000059
277.417000	0.005614	0.000056
277.292000	0.005391	0.000054
277.171000	0.005214	0.000052
277.053000	0.005063	0.000051
276.935000	0.004925	0.000049
276.817000	0.004836	0.000048
276.700000	0.004702	0.000047
276.584000	0.004608	0.000046
276.472000	0.004540	0.000045
276.357000	0.004460	0.000045
276.235000	0.004410	0.000044
276.112000	0.004365	0.000044
275.990000	0.004333	0.000043
275.868000	0.004292	0.000043
275.746000	0.004257	0.000043
275.620000	0.004180	0.000042
275.493000	0.004059	0.000041
275.369000	0.003911	0.000039
275.243000	0.003761	0.000038
275.115000	0.003625	0.000036
274.987000	0.003482	0.000035
274.860000	0.003336	0.000033
274.734000	0.003174	0.000032
274.610000	0.003013	0.000030
274.489000	0.002858	0.000029
274.374000	0.002649	0.000026
274.256000	0.002426	0.000024
274.134000	0.002181	0.000022
274.012000	0.001931	0.000019
273.888000	0.001694	0.000017
273.763000	0.001486	0.000015
273.636000	0.001291	0.000013
273.512000	0.001104	0.000011
273.390000	0.000932	0.000009
273.270000	0.000805	0.000008
273.154000	0.000740	0.000007
273.040000	0.000725	0.000007
272.923000	0.000759	0.000008
272.801000	0.000858	0.000009
272.673000	0.001016	0.000010
272.547000	0.001196	0.000012
272.425000	0.001399	0.000014
272.310000	0.001563	0.000016
272.201000	0.001694	0.000017
272.093000	0.001797	0.000018
271.989000	0.001823	0.000018
271.893000	0.001803	0.000018
271.801000	0.001711	0.000017
271.713000	0.001560	0.000016
271.631000	0.001354	0.000014
271.546000	0.001122	0.000011
271.457000	0.000856	0.000009
271.365000	0.000588	0.000006
271.275000	0.000302	0.000003
271.188000	0.000034	0.000000
271.103000	-0.000242	-0.000002
271.019000	-0.000466	-0.000005
270.936000	-0.000660	-0.000007
270.854000	-0.000828	-0.000008
270.770000	-0.001000	-0.000010
270.684000	-0.001171	-0.000012
270.591000	-0.001355	-0.000014
270.494000	-0.001551	-0.000016
270.392000	-0.001794	-0.000018
270.291000	-0.001984	-0.000020
270.190000	-0.002212	-0.000022
270.086000	-0.002427	-0.000024
269.979000	-0.002641	-0.000026
269.872000	-0.002882	-0.000029
269.765000	-0.003083	-0.000031
269.656000	-0.003277	-0.000033
269.546000	-0.003471	-0.000035
269.435000	-0.003619	-0.000036
269.323000	-0.003715	-0.000037
269.211000	-0.003756	-0.000038
269.096000	-0.003731	-0.000037
268.981000	-0.003616	-0.000036
268.863000	-0.003459	-0.000035
268.743000	-0.003234	-0.000032
268.622000	-0.003007	-0.000030
268.502000	-0.002780	-0.000028
268.383000	-0.002600	-0.000026
268.265000	-0.002469	-0.000025
268.143000	-0.002406	-0.000024
268.027000	-0.002378	-0.000024
267.913000	-0.002439	-0.000024
267.794000	-0.002565	-0.000026
267.673000	-0.002733	-0.000027
267.556000	-0.002949	-0.000029
267.439000	-0.003206	-0.000032
267.326000	-0.003503	-0.000035
267.214000	-0.003796	-0.000038
267.093000	-0.004064	-0.000041
266.966000	-0.004286	-0.000043
266.834000	-0.004485	-0.000045
266.701000	-0.004668	-0.000047
266.568000	-0.004810	-0.000048
266.436000	-0.004946	-0.000049
266.303000	-0.005056	-0.000051
266.168000	-0.005114	-0.000051
266.033000	-0.005199	-0.000052
265.900000	-0.005308	-0.000053
265.767000	-0.005452	-0.000055
265.635000	-0.005586	-0.000056
265.508000	-0.005732	-0.000057
265.382000	-0.005849	-0.000058
265.256000	-0.005963	-0.000060
265.128000	-0.006058	-0.000061
264.997000	-0.006150	-0.000061
264.861000	-0.006250	-0.000062
264.721000	-0.006337	-0.000063
264.584000	-0.006409	-0.000064
264.450000	-0.006491	-0.000065
264.317000	-0.006532	-0.000065
264.186000	-0.006579	-0.000066
264.054000	-0.006600	-0.000066
263.920000	-0.006601	-0.000066
263.785000	-0.006617	-0.000066
263.650000	-0.006663	-0.000067
263.516000	-0.006750	-0.000067
263.379000	-0.006892	-0.000069
263.237000	-0.007050	-0.000071
263.089000	-0.007227	-0.000072
262.935000	-0.007462	-0.000075
262.778000	-0.007707	-0.000077
262.622000	-0.007939	-0.000079
262.471000	-0.008163	-0.000082
262.323000	-0.008382	-0.000084
262.174000	-0.008617	-0.000086
262.019000	-0.008820	-0.000088
261.859000	-0.009014	-0.000090
261.701000	-0.009180	-0.000092
261.546000	-0.009293	-0.000093
261.396000	-0.009369	-0.000094
261.248000	-0.009442	-0.000094
261.101000	-0.009545	-0.000095
260.958000	-0.009665	-0.000097
260.819000	-0.009815	-0.000098
260.683000	-0.009991	-0.000100
260.549000	-0.010193	-0.000102
260.414000	-0.010413	-0.000104
260.281000	-0.010658	-0.000107
260.149000	-0.010891	-0.000109
260.015000	-0.011116	-0.000111
259.882000	-0.011330	-0.000113
259.752000	-0.011505	-0.000115
259.625000	-0.011665	-0.000117
259.500000	-0.011774	-0.000118
259.375000	-0.011844	-0.000118
259.253000	-0.011867	-0.000119
259.128000	-0.011855	-0.000119
259.003000	-0.011763	-0.000118
258.881000	-0.011698	-0.000117
258.757000	-0.011590	-0.000116
258.628000	-0.011487	-0.000115
258.497000	-0.011393	-0.000114
258.365000	-0.011344	-0.000113
258.233000	-0.011335	-0.000113
258.099000	-0.011370	-0.000114
257.959000	-0.011455	-0.000115
257.819000	-0.011566	-0.000116
257.680000	-0.011721	-0.000117
257.540000	-0.011899	-0.000119
257.398000	-0.012083	-0.000121
257.259000	-0.012279	-0.000123
257.121000	-0.012438	-0.000124
256.986000	-0.012593	-0.000126
256.857000	-0.012723	-0.000127
256.730000	-0.012797	-0.000128
256.602000	-0.012827	-0.000128
256.472000	-0.012843	-0.000128
256.344000	-0.012717	-0.000127
256.220000	-0.012605	-0.000126
256.093000	-0.012472	-0.000125
255.967000	-0.012379	-0.000124
255.838000	-0.012328	-0.000123
255.711000	-0.012363	-0.000124
255.588000	-0.012473	-0.000125
255.468000	-0.012673	-0.000127
255.347000	-0.012912	-0.000129
255.226000	-0.013222	-0.000132
255.107000	-0.013576	-0.000136
254.990000	-0.013957	-0.000140
254.876000	-0.014365	-0.000144
254.763000	-0.014800	-0.000148
254.648000	-0.015255	-0.000153
254.530000	-0.015673	-0.000157
254.410000	-0.016052	-0.000161
254.288000	-0.016374	-0.000164
254.161000	-0.016635	-0.000166
254.032000	-0.016826	-0.000168
253.906000	-0.017000	-0.000170
253.781000	-0.017146	-0.000171
253.660000	-0.017279	-0.000173
253.542000	-0.017395	-0.000174
253.423000	-0.017503	-0.000175
253.302000	-0.017594	-0.000176
253.181000	-0.017633	-0.000176
253.061000	-0.017624	-0.000176
252.941000	-0.017600	-0.000176
252.828000	-0.017539	-0.000175
252.716000	-0.017474	-0.000175
252.610000	-0.017395	-0.000174
252.506000	-0.017343	-0.000173
252.403000	-0.017255	-0.000173
252.303000	-0.017238	-0.000172
252.195000	-0.017237	-0.000172
252.082000	-0.017258	-0.000173
251.965000	-0.017314	-0.000173
251.843000	-0.017389	-0.000174
251.715000	-0.017491	-0.000175
251.586000	-0.017626	-0.000176
251.461000	-0.017806	-0.000178
251.336000	-0.018037	-0.000180
251.214000	-0.018299	-0.000183
251.097000	-0.018587	-0.000186
250.982000	-0.018906	-0.000189
250.870000	-0.019220	-0.000192
250.761000	-0.019519	-0.000195
250.653000	-0.019817	-0.000198
250.540000	-0.020098	-0.000201
250.424000	-0.020341	-0.000203
250.304000	-0.020572	-0.000206
250.181000	-0.020775	-0.000208
250.057000	-0.020948	-0.000209
249.936000	-0.021125	-0.000211
249.817000	-0.021245	-0.000212
249.698000	-0.021295	-0.000213
249.582000	-0.021236	-0.000212
249.465000	-0.021162	-0.000212
249.348000	-0.021028	-0.000210
249.230000	-0.020884	-0.000209
249.113000	-0.020721	-0.000207
248.999000	-0.020561	-0.000206
248.888000	-0.020408	-0.000204
248.780000	-0.020263	-0.000203
248.675000	-0.020136	-0.000201
248.569000	-0.020022	-0.000200
248.458000	-0.019946	-0.000199
248.338000	-0.019894	-0.000199
248.209000	-0.019922	-0.000199
248.075000	-0.019996	-0.000200
247.944000	-0.020150	-0.000202
247.815000	-0.020348	-0.000203
247.689000	-0.020610	-0.000206
247.565000	-0.020904	-0.000209
247.443000	-0.021201	-0.000212
247.321000	-0.021522	-0.000215
247.200000	-0.021877	-0.000219
247.083000	-0.022252	-0.000223
246.968000	-0.022626	-0.000226
246.857000	-0.023060	-0.000231
246.743000	-0.023453	-0.000235
246.624000	-0.023883	-0.000239
246.502000	-0.024333	-0.000243
246.375000	-0.024783	-0.000248
246.243000	-0.025216	-0.000252
246.110000	-0.025606	-0.000256
245.978000	-0.025938	-0.000259
245.845000	-0.026190	-0.000262
245.716000	-0.026396	-0.000264
245.587000	-0.026526	-0.000265
245.457000	-0.026625	-0.000266
245.330000	-0.026671	-0.000267
245.205000	-0.026639	-0.000266
245.084000	-0.026563	-0.000266
244.960000	-0.026457	-0.000265
244.833000	-0.026276	-0.000263
244.702000	-0.026108	-0.000261
244.567000	-0.025974	-0.000260
244.433000	-0.025841	-0.000258
244.301000	-0.025807	-0.000258
244.169000	-0.025809	-0.000258
244.040000	-0.025865	-0.000259
243.907000	-0.025956	-0.000260
243.770000	-0.026092	-0.000261
243.631000	-0.026237	-0.000262
243.487000	-0.026439	-0.000264
243.342000	-0.026626	-0.000266
243.200000	-0.026813	-0.000268
243.058000	-0.026979	-0.000270
242.921000	-0.027045	-0.000270
242.787000	-0.027127	-0.000271
242.649000	-0.027198	-0.000272
242.515000	-0.027252	-0.000273
242.384000	-0.027280	-0.000273
242.257000	-0.027313	-0.000273
242.131000	-0.027389	-0.000274
242.005000	-0.027505	-0.000275
241.878000	-0.027656	-0.000277
241.749000	-0.027826	-0.000278
241.623000	-0.028004	-0.000280
241.496000	-0.028188	-0.000282
241.371000	-0.028374	-0.000284
241.250000	-0.028540	-0.000285
241.130000	-0.028680	-0.000287
241.010000	-0.028796	-0.000288
240.890000	-0.028909	-0.000289
240.774000	-0.029015	-0.000290
240.661000	-0.029089	-0.000291
240.550000	-0.029153	-0.000292
240.436000	-0.029182	-0.000292
240.317000	-0.029249	-0.000292
240.194000	-0.029310	-0.000293
240.062000	-0.029414	-0.000294
239.928000	-0.029518	-0.000295
239.794000	-0.029654	-0.000297
239.661000	-0.029838	-0.000298
239.527000	-0.030061	-0.000301
239.389000	-0.030297	-0.000303
239.247000	-0.030560	-0.000306
239.105000	-0.030862	-0.000309
238.962000	-0.031166	-0.000312
238.827000	-0.031473	-0.000315
238.699000	-0.031773	-0.000318
238.577000	-0.032060	-0.000321
238.458000	-0.032302	-0.000323
238.343000	-0.032517	-0.000325
238.230000	-0.032697	-0.000327
238.121000	-0.032821	-0.000328
238.015000	-0.032898	-0.000329
237.907000	-0.032960	-0.000330
237.797000	-0.032994	-0.000330
237.685000	-0.032991	-0.000330
237.568000	-0.032979	-0.000330
237.444000	-0.032913	-0.000329
237.312000	-0.032862	-0.000329
237.180000	-0.032842	-0.000328
237.052000	-0.032865	-0.000329
236.926000	-0.032903	-0.000329
236.802000	-0.033003	-0.000330
236.680000	-0.033132	-0.000331
236.560000	-0.033365	-0.000334
236.437000	-0.033594	-0.000336
236.316000	-0.033829	-0.000338
236.194000	-0.034069	-0.000341
236.075000	-0.034287	-0.000343
235.959000	-0.034481	-0.000345
235.844000	-0.034637	-0.000346
235.732000	-0.034791	-0.000348
235.620000	-0.034908	-0.000349
235.510000	-0.035020	-0.000350
235.399000	-0.035118	-0.000351
235.286000	-0.035222	-0.000352
235.168000	-0.035316	-0.000353
235.048000	-0.035413	-0.000354
234.928000	-0.035545	-0.000355
234.809000	-0.035704	-0.000357
234.688000	-0.035880	-0.000359
234.569000	-0.036071	-0.000361
234.451000	-0.036255	-0.000363
234.333000	-0.036418	-0.000364
234.218000	-0.036540	-0.000365
234.103000	-0.036652	-0.000367
233.987000	-0.036743	-0.000367
233.869000	-0.036811	-0.000368
233.745000	-0.036850	-0.000368
233.615000	-0.036891	-0.000369
233.485000	-0.036908	-0.000369
233.354000	-0.036951	-0.000370
233.220000	-0.036969	-0.000370
233.083000	-0.036977	-0.000370
232.941000	-0.036950	-0.000370
232.799000	-0.036939	-0.000369
232.658000	-0.036972	-0.000370
232.516000	-0.037048	-0.000370
232.371000	-0.037155	-0.000372
232.224000	-0.037365	-0.000374
232.070000	-0.037582	-0.000376
231.915000	-0.037805	-0.000378
231.759000	-0.038043	-0.000380
231.604000	-0.038284	-0.000383
231.451000	-0.038489	-0.000385
231.299000	-0.038692	-0.000387
231.144000	-0.038884	-0.000389
230.987000	-0.039062	-0.000391
230.834000	-0.039245	-0.000392
230.689000	-0.039364	-0.000394
230.554000	-0.039502	-0.000395
230.425000	-0.039642	-0.000396
230.299000	-0.039797	-0.000398
230.174000	-0.040034	-0.000400
230.047000	-0.040219	-0.000402
229.915000	-0.040460	-0.000405
229.779000	-0.040686	-0.000407
229.640000	-0.040905	-0.000409
229.500000	-0.041105	-0.000411
229.359000	-0.041213	-0.000412
229.215000	-0.041281	-0.000413
229.069000	-0.041290	-0.000413
228.922000	-0.041284	-0.000413
228.776000	-0.041247	-0.000412
228.627000	-0.041209	-0.000412
228.479000	-0.041144	-0.000411
228.328000	-0.041106	-0.000411
228.173000	-0.041099	-0.000411
228.019000	-0.041152	-0.000412
227.866000	-0.041246	-0.000412
227.716000	-0.041398	-0.000414
227.570000	-0.041637	-0.000416
227.427000	-0.041908	-0.000419
227.290000	-0.042221	-0.000422
227.156000	-0.042507	-0.000425
227.021000	-0.042730	-0.000427
226.886000	-0.042984	-0.000430
226.755000	-0.043215	-0.000432
226.624000	-0.043432	-0.000434
226.495000	-0.043623	-0.000436
226.369000	-0.043804	-0.000438
226.245000	-0.043968	-0.000440
226.117000	-0.044126	-0.000441
225.984000	-0.044280	-0.000443
225.844000	-0.044410	-0.000444
225.705000	-0.044520	-0.000445
225.565000	-0.044612	-0.000446
225.425000	-0.044691	-0.000447
225.283000	-0.044740	-0.000447
225.142000	-0.044772	-0.000448
225.004000	-0.044781	-0.000448
224.869000	-0.044750	-0.000447
224.736000	-0.044700	-0.000447
224.602000	-0.044635	-0.000446
224.468000	-0.044569	-0.000446
224.333000	-0.044513	-0.000445
224.198000	-0.044475	-0.000445
224.062000	-0.044481	-0.000445
223.927000	-0.044524	-0.000445
223.792000	-0.044620	-0.000446
223.655000	-0.044771	-0.000448
223.519000	-0.044966	-0.000450
223.385000	-0.045194	-0.000452
223.256000	-0.045459	-0.000455
223.129000	-0.045699	-0.000457
223.004000	-0.045996	-0.000460
222.879000	-0.046347	-0.000463
222.756000	-0.046690	-0.000467
222.635000	-0.047038	-0.000470
222.516000	-0.047404	-0.000474
222.398000	-0.047760	-0.000478
222.277000	-0.048062	-0.000481
222.157000	-0.048323	-0.000483
222.035000	-0.048519	-0.000485
221.914000	-0.048649	-0.000486
221.796000	-0.048733	-0.000487
221.681000	-0.048753	-0.000488
221.566000	-0.048761	-0.000488
221.451000	-0.048742	-0.000487
221.336000	-0.048703	-0.000487
221.224000	-0.048632	-0.000486
221.115000	-0.048557	-0.000486
221.010000	-0.048499	-0.000485
220.905000	-0.048468	-0.000485
220.797000	-0.048506	-0.000485
220.685000	-0.048560	-0.000486
220.576000	-0.048651	-0.000487
220.467000	-0.048720	-0.000487
220.358000	-0.048807	-0.000488
220.248000	-0.048896	-0.000489
220.142000	-0.048993	-0.000490
220.042000	-0.049078	-0.000491
219.947000	-0.049169	-0.000492
219.856000	-0.049304	-0.000493
219.765000	-0.049457	-0.000495
219.674000	-0.049636	-0.000496
219.585000	-0.049850	-0.000498
219.494000	-0.050087	-0.000501
219.401000	-0.050332	-0.000503
219.308000	-0.050571	-0.000506
219.210000	-0.050839	-0.000508
219.110000	-0.051134	-0.000511
219.008000	-0.051488	-0.000515
218.905000	-0.051821	-0.000518
218.799000	-0.052178	-0.000522
218.688000	-0.052510	-0.000525
218.572000	-0.052805	-0.000528
218.452000	-0.053033	-0.000530
218.327000	-0.053188	-0.000532
218.198000	-0.053265	-0.000533
218.068000	-0.053261	-0.000533
217.937000	-0.053174	-0.000532
217.803000	-0.053016	-0.000530
217.668000	-0.052833	-0.000528
217.530000	-0.052661	-0.000527
217.389000	-0.052424	-0.000524
217.248000	-0.052219	-0.000522
217.107000	-0.052027	-0.000520
216.971000	-0.051884	-0.000519
216.836000	-0.051841	-0.000518
216.698000	-0.051856	-0.000519
216.558000	-0.051951	-0.000520
216.418000	-0.052107	-0.000521
216.279000	-0.052336	-0.000523
216.139000	-0.052615	-0.000526
216.002000	-0.052961	-0.000530
215.865000	-0.053342	-0.000533
215.729000	-0.053754	-0.000538
215.594000	-0.054157	-0.000542
215.460000	-0.054541	-0.000545
215.329000	-0.054903	-0.000549
215.199000	-0.055214	-0.000552
215.070000	-0.055499	-0.000555
214.942000	-0.055761	-0.000558
214.817000	-0.055992	-0.000560
214.692000	-0.056257	-0.000563
214.566000	-0.056450	-0.000565
214.440000	-0.056612	-0.000566
214.315000	-0.056718	-0.000567
214.188000	-0.056792	-0.000568
214.059000	-0.056804	-0.000568
213.931000	-0.056786	-0.000568
213.803000	-0.056738	-0.000567
213.672000	-0.056647	-0.000566
213.539000	-0.056552	-0.000566
213.402000	-0.056475	-0.000565
213.265000	-0.056409	-0.000564
213.126000	-0.056343	-0.000563
212.988000	-0.056300	-0.000563
212.849000	-0.056287	-0.000563
212.709000	-0.056309	-0.000563
212.567000	-0.056365	-0.000564
212.425000	-0.056473	-0.000565
212.283000	-0.056612	-0.000566
212.143000	-0.056779	-0.000568
212.000000	-0.056966	-0.000570
211.851000	-0.057203	-0.000572
211.699000	-0.057418	-0.000574
211.547000	-0.057623	-0.000576
211.395000	-0.057806	-0.000578
211.244000	-0.057954	-0.000580
211.089000	-0.058078	-0.000581
210.931000	-0.058164	-0.000582
210.773000	-0.058215	-0.000582
210.614000	-0.058226	-0.000582
210.458000	-0.058205	-0.000582
210.303000	-0.058141	-0.000581
210.151000	-0.058071	-0.000581
209.998000	-0.058010	-0.000580
209.846000	-0.057933	-0.000579
209.695000	-0.057879	-0.000579
209.539000	-0.057872	-0.000579
209.380000	-0.057902	-0.000579
209.220000	-0.057985	-0.000580
209.058000	-0.058124	-0.000581
208.900000	-0.058305	-0.000583
208.741000	-0.058545	-0.000585
208.584000	-0.058821	-0.000588
208.425000	-0.059118	-0.000591
208.267000	-0.059449	-0.000594
208.112000	-0.059798	-0.000598
207.959000	-0.060149	-0.000601
207.813000	-0.060505	-0.000605
207.670000	-0.060859	-0.000609
207.529000	-0.061183	-0.000612
207.389000	-0.061490	-0.000615
207.250000	-0.061756	-0.000618
207.112000	-0.062030	-0.000620
206.975000	-0.062275	-0.000623
206.838000	-0.062545	-0.000625
206.702000	-0.062783	-0.000628
206.566000	-0.063005	-0.000630
206.434000	-0.063247	-0.000632
206.301000	-0.063473	-0.000635
206.171000	-0.063676	-0.000637
206.041000	-0.063842	-0.000638
205.911000	-0.063964	-0.000640
205.779000	-0.064048	-0.000640
205.646000	-0.064096	-0.000641
205.514000	-0.064099	-0.000641
205.377000	-0.064072	-0.000641
205.239000	-0.064001	-0.000640
205.099000	-0.063834	-0.000638
204.958000	-0.063665	-0.000637
204.817000	-0.063469	-0.000635
204.678000	-0.063268	-0.000633
204.539000	-0.063058	-0.000631
204.400000	-0.062850	-0.000628
204.260000	-0.062692	-0.000627
204.118000	-0.062587	-0.000626
203.975000	-0.062561	-0.000626
203.831000	-0.062647	-0.000626
203.685000	-0.062851	-0.000629
203.537000	-0.063135	-0.000631
203.391000	-0.063501	-0.000635
203.247000	-0.063938	-0.000639
203.101000	-0.064393	-0.000644
202.951000	-0.064868	-0.000649
202.801000	-0.065329	-0.000653
202.653000	-0.065772	-0.000658
202.509000	-0.066176	-0.000662
202.369000	-0.066526	-0.000665
202.235000	-0.066815	-0.000668
202.104000	-0.067008	-0.000670
201.975000	-0.067142	-0.000671
201.849000	-0.067201	-0.000672
201.722000	-0.067194	-0.000672
201.594000	-0.067111	-0.000671
201.467000	-0.066961	-0.000670
201.336000	-0.066827	-0.000668
201.207000	-0.066678	-0.000667
201.079000	-0.066551	-0.000666
200.951000	-0.066447	-0.000664
200.819000	-0.066368	-0.000664
200.684000	-0.066326	-0.000663
200.547000	-0.066316	-0.000663
200.410000	-0.066349	-0.000663
200.273000	-0.066432	-0.000664
200.134000	-0.066565	-0.000666
199.993000	-0.066732	-0.000667
199.848000	-0.066950	-0.000669
199.700000	-0.067199	-0.000672
199.552000	-0.067479	-0.000675
199.401000	-0.067795	-0.000678
199.250000	-0.068104	-0.000681
199.101000	-0.068394	-0.000684
198.954000	-0.068674	-0.000687
198.811000	-0.068929	-0.000689
198.671000	-0.069190	-0.000692
198.532000	-0.069382	-0.000694
198.395000	-0.069551	-0.000696
198.258000	-0.069726	-0.000697
198.123000	-0.069852	-0.000699
197.986000	-0.069961	-0.000700
197.851000	-0.070038	-0.000700
197.715000	-0.070081	-0.000701
197.580000	-0.070066	-0.000701
197.443000	-0.070050	-0.000700
197.305000	-0.070052	-0.000701
197.165000	-0.070070	-0.000701
197.023000	-0.070112	-0.000701
196.882000	-0.070184	-0.000702
196.743000	-0.070294	-0.000703
196.604000	-0.070449	-0.000704
196.466000	-0.070624	-0.000706
196.330000	-0.070832	-0.000708
196.192000	-0.071054	-0.000711
196.051000	-0.071284	-0.000713
195.911000	-0.071529	-0.000715
195.769000	-0.071770	-0.000718
195.628000	-0.072029	-0.000720
195.489000	-0.072300	-0.000723
195.353000	-0.072565	-0.000726
195.218000	-0.072828	-0.000728
195.084000	-0.073075	-0.000731
194.952000	-0.073312	-0.000733
194.823000	-0.073537	-0.000735
194.692000	-0.073741	-0.000737
194.563000	-0.073972	-0.000740
194.435000	-0.074128	-0.000741
194.306000	-0.074264	-0.000743
194.176000	-0.074365	-0.000744
194.048000	-0.074458	-0.000745
193.921000	-0.074498	-0.000745
193.791000	-0.074505	-0.000745
193.659000	-0.074454	-0.000745
193.526000	-0.074359	-0.000744
193.394000	-0.074223	-0.000742
193.263000	-0.074052	-0.000741
193.134000	-0.073817	-0.000738
193.007000	-0.073588	-0.000736
192.885000	-0.073368	-0.000734
192.765000	-0.073144	-0.000731
192.647000	-0.072932	-0.000729
192.529000	-0.072763	-0.000728
192.409000	-0.072647	-0.000726
192.284000	-0.072593	-0.000726
192.153000	-0.072596	-0.000726
192.017000	-0.072669	-0.000727
191.876000	-0.072818	-0.000728
191.734000	-0.073014	-0.000730
191.594000	-0.073268	-0.000733
191.458000	-0.073584	-0.000736
191.323000	-0.073940	-0.000739
191.185000	-0.074346	-0.000743
191.045000	-0.074789	-0.000748
190.900000	-0.075266	-0.000753
190.753000	-0.075784	-0.000758
190.607000	-0.076286	-0.000763
190.458000	-0.076807	-0.000768
190.311000	-0.077282	-0.000773
190.167000	-0.077708	-0.000777
190.027000	-0.078055	-0.000781
189.890000	-0.078317	-0.000783
189.754000	-0.078479	-0.000785
189.619000	-0.078551	-0.000786
189.484000	-0.078558	-0.000786
189.349000	-0.078504	-0.000785
189.214000	-0.078389	-0.000784
189.077000	-0.078260	-0.000783
188.938000	-0.078131	-0.000781
188.795000	-0.078019	-0.000780
188.651000	-0.077966	-0.000780
188.505000	-0.077938	-0.000779
188.358000	-0.077927	-0.000779
188.209000	-0.077952	-0.000780
188.059000	-0.078007	-0.000780
187.907000	-0.078106	-0.000781
187.756000	-0.078243	-0.000782
187.604000	-0.078388	-0.000784
187.452000	-0.078564	-0.000786
187.300000	-0.078766	-0.000788
187.146000	-0.078978	-0.000790
186.997000	-0.079204	-0.000792
186.851000	-0.079446	-0.000794
186.707000	-0.079694	-0.000797
186.563000	-0.079953	-0.000800
186.417000	-0.080206	-0.000802
186.270000	-0.080459	-0.000805
186.123000	-0.080707	-0.000807
185.974000	-0.080940	-0.000809
185.826000	-0.081193	-0.000812
185.682000	-0.081371	-0.000814
185.542000	-0.081506	-0.000815
185.404000	-0.081595	-0.000816
185.268000	-0.081648	-0.000816
185.134000	-0.081657	-0.000817
185.001000	-0.081645	-0.000816
184.868000	-0.081593	-0.000816
184.735000	-0.081572	-0.000816
184.601000	-0.081561	-0.000816
184.470000	-0.081575	-0.000816
184.340000	-0.081616	-0.000816
184.210000	-0.081694	-0.000817
184.078000	-0.081821	-0.000818
183.943000	-0.081991	-0.000820
183.802000	-0.082203	-0.000822
183.658000	-0.082468	-0.000825
183.511000	-0.082742	-0.000827
183.362000	-0.083016	-0.000830
183.213000	-0.083294	-0.000833
183.066000	-0.083709	-0.000837
182.920000	-0.083983	-0.000840
182.774000	-0.084222	-0.000842
182.627000	-0.084439	-0.000844
182.476000	-0.084623	-0.000846
182.324000	-0.084775	-0.000848
182.169000	-0.084890	-0.000849
182.016000	-0.084991	-0.000850
181.866000	-0.085088	-0.000851
181.718000	-0.085151	-0.000852
181.573000	-0.085190	-0.000852
181.432000	-0.085214	-0.000852
181.296000	-0.085208	-0.000852
181.163000	-0.085198	-0.000852
181.029000	-0.085175	-0.000852
180.896000	-0.085146	-0.000851
180.761000	-0.085117	-0.000851
180.627000	-0.085059	-0.000851
180.495000	-0.085062	-0.000851
180.365000	-0.085081	-0.000851
180.238000	-0.085069	-0.000851
180.114000	-0.085133	-0.000851
179.991000	-0.085242	-0.000852
179.872000	-0.085391	-0.000854
179.752000	-0.085577	-0.000856
179.633000	-0.085792	-0.000858
179.513000	-0.086058	-0.000861
179.392000	-0.086358	-0.000864
179.272000	-0.086705	-0.000867
179.150000	-0.087092	-0.000871
179.029000	-0.087502	-0.000875
178.908000	-0.087919	-0.000879
178.788000	-0.088349	-0.000883
178.669000	-0.088775	-0.000888
178.554000	-0.089178	-0.000892
178.441000	-0.089554	-0.000896
178.329000	-0.089892	-0.000899
178.216000	-0.090174	-0.000902
178.104000	-0.090406	-0.000904
177.990000	-0.090594	-0.000906
177.878000	-0.090726	-0.000907
177.767000	-0.090824	-0.000908
177.657000	-0.090891	-0.000909
177.549000	-0.090894	-0.000909
177.441000	-0.090852	-0.000909
177.333000	-0.090785	-0.000908
177.225000	-0.090695	-0.000907
177.116000	-0.090588	-0.000906
177.006000	-0.090470	-0.000905
176.895000	-0.090382	-0.000904
176.786000	-0.090321	-0.000903
176.677000	-0.090281	-0.000903
176.570000	-0.090285	-0.000903
176.464000	-0.090330	-0.000903
176.358000	-0.090422	-0.000904
176.251000	-0.090556	-0.000906
176.141000	-0.090733	-0.000907
176.029000	-0.090964	-0.000910
175.915000	-0.091220	-0.000912
175.799000	-0.091493	-0.000915
175.679000	-0.091795	-0.000918
175.557000	-0.092110	-0.000921
175.432000	-0.092467	-0.000925
175.305000	-0.092784	-0.000928
175.179000	-0.093093	-0.000931
175.050000	-0.093379	-0.000934
174.919000	-0.093604	-0.000936
174.790000	-0.093817	-0.000938
174.660000	-0.093971	-0.000940
174.535000	-0.094092	-0.000941
174.414000	-0.094172	-0.000942
174.295000	-0.094222	-0.000942
174.177000	-0.094229	-0.000942
174.062000	-0.094201	-0.000942
173.949000	-0.094155	-0.000942
173.835000	-0.094094	-0.000941
173.720000	-0.094037	-0.000940
173.605000	-0.093983	-0.000940
173.488000	-0.093938	-0.000939
173.373000	-0.093915	-0.000939
173.259000	-0.093874	-0.000939
173.146000	-0.093959	-0.000940
173.033000	-0.094037	-0.000940
172.917000	-0.094181	-0.000942
172.800000	-0.094366	-0.000944
172.682000	-0.094600	-0.000946
172.562000	-0.094883	-0.000949
172.439000	-0.095191	-0.000952
172.316000	-0.095511	-0.000955
172.193000	-0.095860	-0.000959
172.069000	-0.096222	-0.000962
171.944000	-0.096578	-0.000966
171.818000	-0.096914	-0.000969
171.695000	-0.097213	-0.000972
171.571000	-0.097491	-0.000975
171.448000	-0.097724	-0.000977
171.322000	-0.097912	-0.000979
171.194000	-0.098064	-0.000981
171.064000	-0.098183	-0.000982
170.932000	-0.098281	-0.000983
170.796000	-0.098210	-0.000982
170.660000	-0.098238	-0.000982
170.524000	-0.098247	-0.000982
170.388000	-0.098263	-0.000983
170.254000	-0.098277	-0.000983
170.119000	-0.098250	-0.000983
169.984000	-0.098310	-0.000983
169.848000	-0.098381	-0.000984
169.712000	-0.098489	-0.000985
169.574000	-0.098630	-0.000986
169.433000	-0.098808	-0.000988
169.291000	-0.099027	-0.000990
169.149000	-0.099291	-0.000993
169.009000	-0.099569	-0.000996
168.870000	-0.099872	-0.000999
168.732000	-0.100184	-0.001002
168.595000	-0.100497	-0.001005
168.459000	-0.100808	-0.001008
168.323000	-0.101125	-0.001011
168.187000	-0.101429	-0.001014
168.050000	-0.101774	-0.001018
167.916000	-0.102023	-0.001020
167.779000	-0.102149	-0.001021
167.640000	-0.102323	-0.001023
167.497000	-0.102472	-0.001025
167.352000	-0.102617	-0.001026
167.208000	-0.102738	-0.001027
167.062000	-0.102853	-0.001029
166.913000	-0.102936	-0.001029
166.764000	-0.102993	-0.001030
166.612000	-0.103025	-0.001030
166.461000	-0.103037	-0.001030
166.306000	-0.103009	-0.001030
166.151000	-0.102941	-0.001029
165.994000	-0.102864	-0.001029
165.836000	-0.102779	-0.001028
165.678000	-0.102705	-0.001027
165.522000	-0.102644	-0.001026
165.368000	-0.102584	-0.001026
165.214000	-0.102547	-0.001025
165.061000	-0.102535	-0.001025
164.909000	-0.102552	-0.001026
164.758000	-0.102580	-0.001026
164.606000	-0.102668	-0.001027
164.454000	-0.102811	-0.001028
164.303000	-0.103003	-0.001030
164.151000	-0.103255	-0.001033
163.999000	-0.103560	-0.001036
163.847000	-0.103897	-0.001039
163.695000	-0.104242	-0.001042
163.546000	-0.104574	-0.001046
163.396000	-0.104898	-0.001049
163.245000	-0.105204	-0.001052
163.096000	-0.105482	-0.001055
162.943000	-0.105730	-0.001057
162.789000	-0.105948	-0.001059
162.637000	-0.106135	-0.001061
162.481000	-0.106257	-0.001063
162.325000	-0.106342	-0.001063
162.166000	-0.106393	-0.001064
162.006000	-0.106402	-0.001064
161.846000	-0.106345	-0.001063
161.688000	-0.106261	-0.001063
161.529000	-0.106228	-0.001062
161.371000	-0.106218	-0.001062
161.217000	-0.106239	-0.001062
161.062000	-0.106331	-0.001063
160.909000	-0.106477	-0.001065
160.754000	-0.106678	-0.001067
160.602000	-0.106925	-0.001069
160.449000	-0.107228	-0.001072
160.297000	-0.107563	-0.001076
160.145000	-0.107933	-0.001079
159.994000	-0.108340	-0.001083
159.844000	-0.108812	-0.001088
159.694000	-0.109236	-0.001092
159.545000	-0.109651	-0.001097
159.396000	-0.110030	-0.001100
159.247000	-0.110365	-0.001104
159.100000	-0.110653	-0.001107
158.952000	-0.110888	-0.001109
158.806000	-0.111015	-0.001110
158.662000	-0.111163	-0.001112
158.517000	-0.111273	-0.001113
158.375000	-0.111386	-0.001114
158.236000	-0.111499	-0.001115
158.100000	-0.111619	-0.001116
157.965000	-0.111763	-0.001118
157.828000	-0.111929	-0.001119
157.691000	-0.112104	-0.001121
157.553000	-0.112287	-0.001123
157.413000	-0.112479	-0.001125
157.274000	-0.112689	-0.001127
157.133000	-0.112908	-0.001129
156.991000	-0.113132	-0.001131
156.848000	-0.113366	-0.001134
156.703000	-0.113565	-0.001136
156.557000	-0.113723	-0.001137
156.412000	-0.113811	-0.001138
156.270000	-0.113815	-0.001138
156.128000	-0.113716	-0.001137
155.985000	-0.113579	-0.001136
155.843000	-0.113416	-0.001134
155.701000	-0.113267	-0.001133
155.563000	-0.113133	-0.001131
155.428000	-0.113052	-0.001131
155.293000	-0.112935	-0.001129
155.158000	-0.112815	-0.001128
155.022000	-0.112704	-0.001127
154.888000	-0.112589	-0.001126
154.753000	-0.112494	-0.001125
154.617000	-0.112418	-0.001124
154.478000	-0.112379	-0.001124
154.338000	-0.112374	-0.001124
154.197000	-0.112344	-0.001123
154.055000	-0.112376	-0.001124
153.910000	-0.112436	-0.001124
153.766000	-0.112513	-0.001125
153.624000	-0.112599	-0.001126
153.482000	-0.112703	-0.001127
153.339000	-0.112828	-0.001128
153.197000	-0.112956	-0.001130
153.059000	-0.113202	-0.001132
152.923000	-0.113410	-0.001134
152.787000	-0.113653	-0.001137
152.654000	-0.113915	-0.001139
152.524000	-0.114202	-0.001142
152.397000	-0.114505	-0.001145
152.272000	-0.114825	-0.001148
152.152000	-0.115167	-0.001152
152.035000	-0.115518	-0.001155
151.917000	-0.115910	-0.001159
151.803000	-0.116227	-0.001162
151.692000	-0.116536	-0.001165
151.584000	-0.116806	-0.001168
151.478000	-0.117035	-0.001170
151.372000	-0.117206	-0.001172
151.267000	-0.117326	-0.001173
151.163000	-0.117402	-0.001174
151.058000	-0.117433	-0.001174
150.953000	-0.117426	-0.001174
150.847000	-0.117400	-0.001174
150.742000	-0.117380	-0.001174
150.638000	-0.117349	-0.001173
150.533000	-0.117316	-0.001173
150.429000	-0.117296	-0.001173
150.326000	-0.117295	-0.001173
150.221000	-0.117323	-0.001173
150.116000	-0.117376	-0.001174
150.011000	-0.117474	-0.001175
149.906000	-0.117595	-0.001176
149.799000	-0.117776	-0.001178
149.686000	-0.117943	-0.001179
149.571000	-0.118115	-0.001181
149.456000	-0.118279	-0.001183
149.339000	-0.118435	-0.001184
149.223000	-0.118578	-0.001186
149.105000	-0.118735	-0.001187
148.989000	-0.118848	-0.001188
148.876000	-0.119000	-0.001190
148.762000	-0.119155	-0.001192
148.649000	-0.119326	-0.001193
148.538000	-0.119510	-0.001195
148.427000	-0.119695	-0.001197
148.318000	-0.119884	-0.001199
148.208000	-0.120076	-0.001201
148.100000	-0.120270	-0.001203
147.990000	-0.120447	-0.001204
147.878000	-0.120611	-0.001206
147.766000	-0.120758	-0.001208
147.653000	-0.120859	-0.001209
147.543000	-0.120936	-0.001209
147.433000	-0.121060	-0.001211
147.326000	-0.121045	-0.001210
147.219000	-0.120950	-0.001210
147.115000	-0.120880	-0.001209
147.015000	-0.120771	-0.001208
146.915000	-0.120646	-0.001206
146.817000	-0.120525	-0.001205
146.719000	-0.120403	-0.001204
146.621000	-0.120280	-0.001203
146.524000	-0.120166	-0.001202
146.429000	-0.120037	-0.001200
146.333000	-0.119914	-0.001199
146.241000	-0.119793	-0.001198
146.151000	-0.119679	-0.001197
146.062000	-0.119569	-0.001196
145.975000	-0.119466	-0.001195
145.889000	-0.119340	-0.001193
145.803000	-0.119224	-0.001192
145.714000	-0.119099	-0.001191
145.626000	-0.118957	-0.001190
145.534000	-0.118804	-0.001188
145.444000	-0.118638	-0.001186
145.351000	-0.118488	-0.001185
145.257000	-0.118323	-0.001183
145.161000	-0.118196	-0.001182
145.058000	-0.118118	-0.001181
144.953000	-0.118105	-0.001181
144.848000	-0.118157	-0.001182
144.739000	-0.118307	-0.001183
144.627000	-0.118500	-0.001185
144.512000	-0.118720	-0.001187
144.394000	-0.118931	-0.001189
144.274000	-0.119141	-0.001191
144.151000	-0.119325	-0.001193
144.027000	-0.119508	-0.001195
143.902000	-0.119680	-0.001197
143.775000	-0.119829	-0.001198
143.647000	-0.119961	-0.001200
143.518000	-0.120043	-0.001200
143.388000	-0.120060	-0.001201
143.255000	-0.120003	-0.001200
143.123000	-0.119875	-0.001199
142.991000	-0.119730	-0.001197
142.860000	-0.119498	-0.001195
142.729000	-0.119214	-0.001192
142.598000	-0.118883	-0.001189
142.464000	-0.118497	-0.001185
142.328000	-0.118060	-0.001181
142.189000	-0.117594	-0.001176
142.051000	-0.117101	-0.001171
141.919000	-0.116550	-0.001166
141.785000	-0.115950	-0.001160
141.649000	-0.115288	-0.001153
141.515000	-0.114583	-0.001146
141.381000	-0.113795	-0.001138
141.253000	-0.112946	-0.001129
141.124000	-0.112035	-0.001120
140.995000	-0.111077	-0.001111
140.866000	-0.110061	-0.001101
140.735000	-0.108955	-0.001090
140.607000	-0.107873	-0.001079
140.478000	-0.106734	-0.001067
140.346000	-0.105527	-0.001055
140.216000	-0.104236	-0.001042
140.085000	-0.102852	-0.001029
139.951000	-0.101371	-0.001014
139.816000	-0.099799	-0.000998
139.680000	-0.098106	-0.000981
139.545000	-0.096291	-0.000963
139.411000	-0.094297	-0.000943
139.278000	-0.092125	-0.000921
139.152000	-0.089760	-0.000898
139.027000	-0.087193	-0.000872
138.903000	-0.084381	-0.000844
138.780000	-0.081322	-0.000813
138.658000	-0.077993	-0.000780
138.535000	-0.074415	-0.000744
138.411000	-0.070563	-0.000706
138.287000	-0.066488	-0.000665
138.161000	-0.062151	-0.000622
138.035000	-0.057640	-0.000576
137.909000	-0.052954	-0.000530
137.785000	-0.048122	-0.000481
137.661000	-0.043152	-0.000432
137.539000	-0.038068	-0.000381
137.420000	-0.032888	-0.000329
137.302000	-0.027646	-0.000276
137.182000	-0.022264	-0.000223
137.063000	-0.016784	-0.000168
136.946000	-0.011231	-0.000112
136.832000	-0.005555	-0.000056
136.717000	0.000220	0.000002
136.604000	0.006167	0.000062
136.496000	0.012268	0.000123
136.390000	0.018542	0.000185
136.285000	0.024986	0.000250
136.180000	0.031588	0.000316
136.074000	0.038352	0.000384
135.971000	0.045188	0.000452
135.870000	0.052126	0.000521
135.774000	0.059246	0.000592
135.677000	0.066341	0.000663
135.580000	0.073491	0.000735
135.483000	0.080691	0.000807
135.387000	0.087909	0.000879
135.291000	0.095133	0.000951
135.194000	0.102369	0.001024
135.097000	0.109612	0.001096
135.001000	0.116736	0.001167
134.905000	0.123904	0.001239
134.807000	0.131099	0.001311
134.710000	0.138326	0.001383
134.615000	0.145598	0.001456
134.520000	0.152939	0.001529
134.423000	0.160344	0.001603
134.327000	0.167837	0.001678
134.228000	0.175408	0.001754
134.128000	0.183086	0.001831
134.025000	0.190837	0.001908
133.920000	0.198639	0.001986
133.813000	0.206511	0.002065
133.707000	0.214380	0.002144
133.603000	0.222319	0.002223
133.500000	0.230278	0.002303
133.393000	0.238258	0.002383
133.282000	0.246258	0.002463
133.171000	0.254263	0.002543
133.061000	0.262258	0.002623
132.952000	0.270200	0.002702
132.843000	0.278173	0.002782
132.733000	0.286146	0.002861
132.623000	0.294117	0.002941
132.514000	0.302114	0.003021
132.404000	0.310108	0.003101
132.294000	0.318096	0.003181
132.182000	0.326137	0.003261
132.070000	0.334193	0.003342
131.956000	0.342257	0.003423
131.840000	0.350344	0.003503
131.724000	0.358440	0.003584
131.609000	0.366547	0.003665
131.495000	0.374666	0.003747
131.379000	0.382765	0.003828
131.262000	0.390897	0.003909
131.143000	0.399030	0.003990
131.023000	0.407163	0.004072
130.899000	0.415303	0.004153
130.773000	0.423426	0.004234
130.647000	0.431554	0.004316
130.519000	0.439662	0.004397
130.391000	0.447734	0.004477
130.262000	0.455784	0.004558
130.132000	0.463762	0.004638
130.002000	0.471703	0.004717
129.874000	0.479568	0.004796
129.744000	0.487352	0.004874
129.613000	0.495079	0.004951
129.479000	0.502721	0.005027
129.342000	0.510305	0.005103
129.205000	0.517825	0.005178
129.065000	0.525271	0.005253
128.925000	0.532647	0.005326
128.783000	0.539913	0.005399
128.640000	0.547046	0.005470
128.491000	0.554047	0.005540
128.337000	0.560927	0.005609
128.180000	0.567677	0.005677
128.022000	0.574289	0.005743
127.858000	0.580752	0.005808
127.694000	0.587016	0.005870
127.528000	0.593076	0.005931
127.361000	0.598903	0.005989
127.196000	0.604490	0.006045
127.031000	0.609808	0.006098
126.866000	0.614875	0.006149
126.701000	0.619679	0.006197
126.536000	0.624249	0.006242
126.370000	0.628562	0.006286
126.205000	0.632652	0.006327
126.041000	0.636532	0.006365
125.876000	0.640201	0.006402
125.712000	0.643732	0.006437
125.549000	0.647122	0.006471
125.385000	0.650393	0.006504
125.221000	0.653579	0.006536
125.058000	0.656695	0.006567
124.894000	0.659748	0.006597
124.730000	0.662773	0.006628
124.564000	0.665745	0.006657
124.400000	0.668696	0.006687
124.237000	0.671561	0.006716
124.075000	0.674370	0.006744
123.912000	0.677038	0.006770
123.751000	0.679568	0.006796
123.591000	0.681944	0.006819
123.431000	0.684163	0.006842
123.274000	0.686226	0.006862
123.115000	0.688132	0.006881
122.956000	0.689955	0.006900
122.801000	0.691686	0.006917
122.644000	0.693315	0.006933
122.487000	0.694878	0.006949
122.332000	0.696405	0.006964
122.175000	0.697860	0.006979
122.018000	0.699285	0.006993
121.861000	0.700698	0.007007
121.704000	0.702111	0.007021
121.548000	0.703530	0.007035
121.392000	0.705075	0.007051
121.237000	0.706571	0.007066
121.081000	0.708038	0.007080
120.925000	0.709502	0.007095
120.768000	0.710938	0.007109
120.612000	0.712319	0.007123
120.455000	0.713649	0.007136
120.297000	0.714851	0.007149
120.139000	0.715937	0.007159
119.980000	0.716928	0.007169
119.822000	0.717815	0.007178
119.665000	0.718617	0.007186
119.509000	0.719328	0.007193
119.354000	0.720001	0.007200
119.199000	0.720626	0.007206
119.044000	0.721155	0.007212
118.889000	0.721655	0.007217
118.733000	0.722095	0.007221
118.574000	0.722496	0.007225
118.415000	0.722880	0.007229
118.254000	0.723291	0.007233
118.092000	0.723659	0.007237
117.930000	0.724013	0.007240
117.766000	0.724362	0.007244
117.603000	0.724726	0.007247
117.439000	0.725066	0.007251
117.275000	0.725432	0.007254
117.114000	0.725748	0.007257
116.953000	0.726052	0.007261
116.793000	0.726355	0.007264
116.635000	0.726636	0.007266
116.480000	0.726879	0.007269
116.326000	0.727110	0.007271
116.173000	0.727318	0.007273
116.023000	0.727537	0.007275
115.874000	0.727709	0.007277
115.726000	0.727892	0.007279
115.580000	0.728028	0.007280
115.433000	0.728143	0.007281
115.286000	0.728261	0.007283
115.137000	0.728371	0.007284
114.988000	0.728489	0.007285
114.837000	0.728630	0.007286
114.686000	0.728798	0.007288
114.535000	0.729010	0.007290
114.384000	0.729243	0.007292
114.232000	0.729497	0.007295
114.082000	0.729792	0.007298
113.931000	0.730103	0.007301
113.780000	0.730490	0.007305
113.630000	0.730886	0.007309
113.479000	0.731274	0.007313
113.327000	0.731660	0.007317
113.175000	0.732013	0.007320
113.019000	0.732338	0.007323
112.865000	0.732644	0.007326
112.709000	0.732901	0.007329
112.552000	0.733107	0.007331
112.394000	0.733293	0.007333
112.237000	0.733380	0.007334
112.081000	0.733460	0.007335
111.925000	0.733557	0.007336
111.769000	0.733695	0.007337
111.613000	0.733895	0.007339
111.459000	0.734173	0.007342
111.306000	0.734538	0.007345
111.152000	0.734992	0.007350
111.000000	0.735508	0.007355
110.849000	0.736076	0.007361
110.698000	0.736682	0.007367
110.547000	0.737302	0.007373
110.397000	0.737930	0.007379
110.246000	0.738564	0.007386
110.097000	0.739140	0.007391
109.947000	0.739679	0.007397
109.796000	0.740160	0.007402
109.647000	0.740643	0.007406
109.496000	0.740997	0.007410
109.345000	0.741272	0.007413
109.195000	0.741435	0.007414
109.044000	0.741542	0.007415
108.893000	0.741599	0.007416
108.743000	0.741634	0.007416
108.594000	0.741655	0.007417
108.446000	0.741722	0.007417
108.298000	0.741820	0.007418
108.149000	0.741932	0.007419
107.999000	0.742050	0.007421
107.850000	0.742178	0.007422
107.702000	0.742306	0.007423
107.553000	0.742425	0.007424
107.404000	0.742506	0.007425
107.257000	0.742566	0.007426
107.112000	0.742585	0.007426
106.970000	0.742557	0.007426
106.828000	0.742544	0.007425
106.685000	0.742521	0.007425
106.544000	0.742482	0.007425
106.401000	0.742410	0.007424
106.259000	0.742312	0.007423
106.117000	0.742179	0.007422
105.975000	0.742010	0.007420
105.830000	0.741830	0.007418
105.686000	0.741631	0.007416
105.542000	0.741436	0.007414
105.397000	0.741241	0.007412
105.254000	0.741057	0.007411
105.111000	0.740939	0.007409
104.967000	0.740851	0.007409
104.823000	0.740748	0.007407
104.678000	0.740719	0.007407
104.532000	0.740685	0.007407
104.384000	0.740669	0.007407
104.237000	0.740684	0.007407
104.090000	0.740697	0.007407
103.943000	0.740778	0.007408
103.797000	0.740871	0.007409
103.651000	0.741004	0.007410
103.506000	0.741167	0.007412
103.359000	0.741357	0.007414
103.210000	0.741560	0.007416
103.065000	0.741754	0.007418
102.918000	0.741976	0.007420
102.771000	0.742156	0.007422
102.625000	0.742298	0.007423
102.477000	0.742437	0.007424
102.329000	0.742556	0.007426
102.182000	0.742660	0.007427
102.035000	0.742758	0.007428
101.891000	0.742885	0.007429
101.746000	0.743012	0.007430
101.602000	0.743159	0.007432
101.458000	0.743303	0.007433
101.315000	0.743452	0.007435
101.171000	0.743599	0.007436
101.026000	0.743751	0.007438
100.880000	0.743879	0.007439
100.733000	0.744060	0.007441
100.584000	0.744236	0.007442
100.436000	0.744390	0.007444
100.289000	0.744512	0.007445
100.144000	0.744595	0.007446
99.998400	0.744612	0.007446
99.851300	0.744563	0.007446
99.705700	0.744475	0.007445
99.559500	0.744318	0.007443
99.412800	0.744045	0.007440
99.266900	0.743797	0.007438
99.119400	0.743537	0.007435
98.972300	0.743252	0.007433
98.824200	0.742984	0.007430
98.676500	0.742754	0.007428
98.529500	0.742568	0.007426
98.385000	0.742442	0.007424
98.239900	0.742360	0.007424
98.095100	0.742307	0.007423
97.949300	0.742306	0.007423
97.802600	0.742337	0.007423
97.656500	0.742361	0.007424
97.511100	0.742455	0.007425
97.366000	0.742532	0.007425
97.221400	0.742587	0.007426
97.075900	0.742606	0.007426
96.931000	0.742583	0.007426
96.785900	0.742467	0.007425
96.641700	0.742351	0.007424
96.497100	0.742165	0.007422
96.351900	0.741965	0.007420
96.206300	0.741751	0.007418
96.058700	0.741563	0.007416
95.912800	0.741407	0.007414
95.767500	0.741294	0.007413
95.620300	0.741229	0.007412
95.475300	0.741261	0.007413
95.330200	0.741331	0.007413
95.182800	0.741447	0.007414
95.034900	0.741528	0.007415
94.886900	0.741687	0.007417
94.736100	0.741868	0.007419
94.585500	0.742066	0.007421
94.433000	0.742249	0.007422
94.279000	0.742412	0.007424
94.125400	0.742553	0.007426
93.972100	0.742670	0.007427
93.818700	0.742705	0.007427
93.665600	0.742701	0.007427
93.513000	0.742677	0.007427
93.360800	0.742641	0.007426
93.209800	0.742598	0.007426
93.059300	0.742553	0.007426
92.909400	0.742531	0.007425
92.759700	0.742504	0.007425
92.608500	0.742506	0.007425
92.459000	0.742540	0.007425
92.310700	0.742596	0.007426
92.162200	0.742661	0.007427
92.013600	0.742725	0.007427
91.865900	0.742792	0.007428
91.716500	0.742861	0.007429
91.567100	0.742924	0.007429
91.420400	0.742946	0.007429
91.272000	0.742994	0.007430
91.124100	0.743039	0.007430
90.976900	0.743050	0.007431
90.829900	0.743042	0.007430
90.684200	0.743022	0.007430
90.539300	0.742995	0.007430
90.395500	0.742946	0.007429
90.252900	0.742883	0.007429
90.110900	0.742860	0.007429
89.970400	0.742806	0.007428
89.830000	0.742794	0.007428
89.690200	0.742778	0.007428
89.550800	0.742765	0.007428
89.411400	0.742754	0.007428
89.270100	0.742739	0.007427
89.125900	0.742726	0.007427
88.981900	0.742709	0.007427
88.839000	0.742697	0.007427
88.694000	0.742688	0.007427
88.549100	0.742706	0.007427
88.406000	0.742747	0.007427
88.263700	0.742770	0.007428
88.122600	0.742851	0.007429
87.981100	0.742940	0.007429
87.840800	0.743049	0.007430
87.699500	0.743168	0.007432
87.558000	0.743235	0.007432
87.413800	0.743320	0.007433
87.270300	0.743350	0.007434
87.126800	0.743363	0.007434
86.984000	0.743347	0.007433
86.841800	0.743312	0.007433
86.698900	0.743261	0.007433
86.554200	0.743197	0.007432
86.410100	0.743132	0.007431
86.265700	0.743101	0.007431
86.122900	0.743065	0.007431
85.979100	0.743044	0.007430
85.834500	0.743058	0.007431
85.689500	0.743114	0.007431
85.544300	0.743199	0.007432
85.399200	0.743339	0.007433
85.254800	0.743513	0.007435
85.110700	0.743703	0.007437
84.965200	0.743886	0.007439
84.819900	0.744163	0.007442
84.674900	0.744374	0.007444
84.530400	0.744543	0.007445
84.385500	0.744667	0.007447
84.242000	0.744724	0.007447
84.099000	0.744723	0.007447
83.956400	0.744680	0.007447
83.815000	0.744532	0.007445
83.672300	0.744383	0.007444
83.531200	0.744231	0.007442
83.390500	0.744066	0.007441
83.248400	0.743906	0.007439
83.106300	0.743776	0.007438
82.966000	0.743678	0.007437
82.826600	0.743619	0.007436
82.686400	0.743603	0.007436
82.545800	0.743632	0.007436
82.405100	0.743699	0.007437
82.264100	0.743823	0.007438
82.122400	0.743920	0.007439
81.980100	0.744044	0.007440
81.838400	0.744161	0.007442
81.696500	0.744260	0.007443
81.554300	0.744321	0.007443
81.412900	0.744347	0.007443
81.270400	0.744293	0.007443
81.126400	0.744237	0.007442
80.984500	0.744101	0.007441
80.843600	0.743953	0.007440
80.701300	0.743779	0.007438
80.561300	0.743610	0.007436
80.421000	0.743450	0.007435
80.281400	0.743308	0.007433
80.141100	0.743207	0.007432
80.000100	0.743143	0.007431
79.858000	0.743127	0.007431
79.717000	0.743156	0.007432
79.575300	0.743219	0.007432
79.433200	0.743311	0.007433
79.289900	0.743410	0.007434
79.146400	0.743516	0.007435
79.002700	0.743609	0.007436
78.857300	0.743679	0.007437
78.711200	0.743739	0.007437
78.565900	0.743727	0.007437
78.420000	0.743735	0.007437
78.273400	0.743720	0.007437
78.125900	0.743698	0.007437
77.980400	0.743676	0.007437
77.835700	0.743629	0.007436
77.691800	0.743595	0.007436
77.548400	0.743562	0.007436
77.404600	0.743537	0.007435
77.261900	0.743537	0.007435
77.119900	0.743584	0.007436
76.977700	0.743599	0.007436
76.834600	0.743629	0.007436
76.693600	0.743682	0.007437
76.550600	0.743736	0.007437
76.407000	0.743800	0.007438
76.265000	0.743849	0.007438
76.122300	0.743901	0.007439
75.978600	0.743910	0.007439
75.836000	0.743883	0.007439
75.691000	0.743835	0.007438
75.546200	0.743774	0.007438
75.401300	0.743722	0.007437
75.256600	0.743665	0.007437
75.112900	0.743610	0.007436
74.969200	0.743557	0.007436
74.826200	0.743501	0.007435
74.682800	0.743457	0.007435
74.539000	0.743396	0.007434
74.394500	0.743299	0.007433
74.249600	0.743187	0.007432
74.106600	0.743062	0.007431
73.964000	0.742943	0.007429
73.820000	0.742809	0.007428
73.677300	0.742675	0.007427
73.535500	0.742520	0.007425
73.394400	0.742394	0.007424
73.253300	0.742333	0.007423
73.112300	0.742238	0.007422
72.971600	0.742153	0.007422
72.830100	0.742084	0.007421
72.687300	0.742023	0.007420
72.547200	0.741976	0.007420
72.406400	0.741934	0.007419
72.263800	0.741900	0.007419
72.121000	0.741856	0.007419
71.979500	0.741772	0.007418
71.838000	0.741663	0.007417
71.697000	0.741560	0.007416
71.556100	0.741432	0.007414
71.415800	0.741287	0.007413
71.275500	0.741133	0.007411
71.136900	0.740955	0.007410
70.997200	0.740768	0.007408
70.855000	0.740573	0.007406
70.714300	0.740369	0.007404
70.573100	0.740179	0.007402
70.431400	0.740021	0.007400
70.287600	0.739905	0.007399
70.142200	0.739860	0.007399
69.994000	0.739859	0.007399
69.845600	0.739891	0.007399
69.696600	0.739930	0.007399
69.547900	0.740027	0.007400
69.400600	0.740108	0.007401
69.253200	0.740183	0.007402
69.105500	0.740245	0.007402
68.957000	0.740273	0.007403
68.809400	0.740266	0.007403
68.660900	0.740227	0.007402
68.512400	0.740145	0.007401
68.364400	0.740034	0.007400
68.216600	0.739891	0.007399
68.069400	0.739730	0.007397
67.922200	0.739601	0.007396
67.775300	0.739473	0.007395
67.628000	0.739354	0.007394
67.482100	0.739255	0.007393
67.336600	0.739188	0.007392
67.189400	0.739134	0.007391
67.041400	0.739120	0.007391
66.891400	0.739162	0.007392
66.739600	0.739179	0.007392
66.587300	0.739197	0.007392
66.435400	0.739243	0.007392
66.283500	0.739285	0.007393
66.131400	0.739300	0.007393
65.980900	0.739285	0.007393
65.830300	0.739239	0.007392
65.680700	0.739127	0.007391
65.533300	0.738985	0.007390
65.383500	0.738795	0.007388
65.237100	0.738547	0.007385
65.092100	0.738281	0.007383
64.947400	0.737992	0.007380
64.804000	0.737706	0.007377
64.660800	0.737433	0.007374
64.517000	0.737210	0.007372
64.372400	0.737043	0.007370
64.227800	0.736930	0.007369
64.083300	0.736912	0.007369
63.938500	0.736936	0.007369
63.793600	0.737000	0.007370
63.648700	0.737075	0.007371
63.505100	0.737163	0.007372
63.363500	0.737274	0.007373
63.219400	0.737364	0.007374
63.074600	0.737454	0.007375
62.930600	0.737531	0.007375
62.786100	0.737581	0.007376
62.640700	0.737613	0.007376
62.493900	0.737659	0.007377
62.346600	0.737696	0.007377
62.198300	0.737706	0.007377
62.049200	0.737709	0.007377
61.900600	0.737703	0.007377
61.754300	0.737689	0.007377
61.605700	0.737684	0.007377
61.457000	0.737726	0.007377
61.310500	0.737791	0.007378
61.161800	0.737885	0.007379
61.013300	0.737990	0.007380
60.865500	0.738108	0.007381
60.716700	0.738230	0.007382
60.567700	0.738352	0.007384
60.418800	0.738470	0.007385
60.271500	0.738575	0.007386
60.124600	0.738660	0.007387
59.978300	0.738735	0.007387
59.834200	0.738818	0.007388
59.690300	0.738878	0.007389
59.548000	0.738921	0.007389
59.407200	0.738938	0.007389
59.268400	0.738924	0.007389
59.131800	0.738885	0.007389
58.997200	0.738829	0.007388
58.863000	0.738722	0.007387
58.730200	0.738580	0.007386
58.598200	0.738436	0.007384
58.464900	0.738278	0.007383
58.332600	0.738099	0.007381
58.201900	0.737912	0.007379
58.071000	0.737709	0.007377
57.939300	0.737530	0.007375
57.808500	0.737344	0.007373
57.679300	0.737156	0.007372
57.550500	0.736970	0.007370
57.421900	0.736802	0.007368
57.293500	0.736598	0.007366
57.167300	0.736430	0.007364
57.041900	0.736260	0.007363
56.917200	0.736088	0.007361
56.792200	0.735918	0.007359
56.668100	0.735744	0.007357
56.546300	0.735563	0.007356
56.424800	0.735424	0.007354
56.303700	0.735277	0.007353
56.183500	0.735124	0.007351
56.063500	0.734974	0.007350
55.943300	0.734820	0.007348
55.822400	0.734687	0.007347
55.701600	0.734583	0.007346
55.581400	0.734492	0.007345
55.461800	0.734445	0.007344
55.343100	0.734457	0.007345
55.224700	0.734520	0.007345
55.108100	0.734632	0.007346
54.990500	0.734806	0.007348
54.873200	0.734998	0.007350
54.756800	0.735210	0.007352
54.641800	0.735451	0.007355
54.527500	0.735702	0.007357
54.414600	0.735956	0.007360
54.303200	0.736211	0.007362
54.193200	0.736434	0.007364
54.084300	0.736640	0.007366
53.975800	0.736832	0.007368
53.869000	0.736995	0.007370
53.762700	0.737135	0.007371
53.656800	0.737283	0.007373
53.549700	0.737408	0.007374
53.445800	0.737489	0.007375
53.342500	0.737573	0.007376
53.239900	0.737682	0.007377
53.138100	0.737774	0.007378
53.038300	0.737892	0.007379
52.940800	0.738081	0.007381
52.844900	0.738296	0.007383
52.751200	0.738495	0.007385
52.658400	0.738677	0.007387
52.568400	0.738804	0.007388
52.478800	0.738871	0.007389
52.391400	0.738882	0.007389
52.305300	0.738815	0.007388
52.218500	0.738691	0.007387
52.135000	0.738504	0.007385
52.050600	0.738255	0.007383
51.966900	0.737940	0.007379
51.883400	0.737582	0.007376
51.801100	0.737218	0.007372
51.718800	0.736768	0.007368
51.635500	0.736292	0.007363
51.552300	0.735819	0.007358
51.468700	0.735375	0.007354
51.385300	0.734956	0.007350
51.300500	0.734609	0.007346
51.216000	0.734313	0.007343
51.130500	0.734043	0.007340
51.046100	0.733815	0.007338
50.961100	0.733615	0.007336
50.876200	0.733459	0.007335
50.792700	0.733321	0.007333
50.709500	0.733193	0.007332
50.625100	0.733093	0.007331
50.543700	0.732999	0.007330
50.462200	0.732913	0.007329
50.380500	0.732856	0.007329
50.298600	0.732795	0.007328
50.217900	0.732722	0.007327
50.137700	0.732623	0.007326
50.056100	0.732512	0.007325
49.975100	0.732393	0.007324
49.896300	0.732268	0.007323
49.817300	0.732194	0.007322
49.736500	0.732114	0.007321
49.658300	0.732039	0.007320
49.579100	0.731966	0.007320
49.500900	0.731900	0.007319
49.422400	0.731844	0.007318
49.343900	0.731791	0.007318
49.266600	0.731754	0.007318
49.191100	0.731732	0.007317
49.115000	0.731740	0.007317
49.039300	0.731779	0.007318
48.963400	0.731843	0.007318
48.888100	0.731947	0.007319
48.811700	0.732078	0.007321
48.736800	0.732242	0.007322
48.661600	0.732420	0.007324
48.587300	0.732630	0.007326
48.511900	0.732864	0.007329
48.437500	0.733099	0.007331
48.364000	0.733379	0.007334
48.291300	0.733645	0.007336
48.218800	0.733909	0.007339
48.147500	0.734191	0.007342
48.076400	0.734464	0.007345
48.005400	0.734701	0.007347
47.935500	0.734953	0.007350
47.865900	0.735163	0.007352
47.797400	0.735351	0.007354
47.729600	0.735526	0.007355
47.662600	0.735675	0.007357
47.596300	0.735818	0.007358
47.530400	0.735968	0.007360
47.466200	0.736113	0.007361
47.401100	0.736249	0.007362
47.337200	0.736377	0.007364
47.272500	0.736487	0.007365
47.208300	0.736569	0.007366
47.143300	0.736621	0.007366
47.077600	0.736641	0.007366
47.012300	0.736656	0.007367
46.946900	0.736657	0.007367
46.882500	0.736603	0.007366
46.816100	0.736496	0.007365
46.749700	0.736351	0.007364
46.683500	0.736135	0.007361
46.617300	0.735913	0.007359
46.551600	0.735667	0.007357
46.486300	0.735386	0.007354
46.422600	0.735075	0.007351
46.359600	0.734747	0.007347
46.297100	0.734398	0.007344
46.235000	0.734040	0.007340
46.173400	0.733664	0.007337
46.112500	0.733278	0.007333
46.051500	0.732893	0.007329
45.991100	0.732506	0.007325
45.931900	0.732097	0.007321
45.873400	0.731686	0.007317
45.815100	0.731304	0.007313
45.757100	0.730908	0.007309
45.699800	0.730495	0.007305
45.643600	0.730051	0.007301
45.587900	0.729610	0.007296
45.532000	0.729111	0.007291
45.475200	0.728621	0.007286
45.419500	0.728139	0.007281
45.363400	0.727730	0.007277
45.308800	0.727441	0.007274
45.254600	0.727268	0.007273
45.201700	0.727222	0.007272
45.149500	0.727331	0.007273
45.097500	0.727558	0.007276
45.047400	0.727873	0.007279
44.997600	0.728261	0.007283
44.947100	0.728692	0.007287
44.898900	0.729136	0.007291
44.852300	0.729546	0.007295
44.803400	0.730002	0.007300
44.757700	0.730433	0.007304
44.712300	0.730832	0.007308
44.667800	0.731166	0.007312
44.623700	0.731448	0.007314
44.578400	0.731642	0.007316
44.531700	0.731770	0.007318
44.487000	0.731858	0.007319
44.443700	0.731860	0.007319
44.402600	0.731856	0.007319
44.362200	0.731822	0.007318
44.324200	0.731799	0.007318
44.285000	0.731790	0.007318
44.246700	0.731798	0.007318
44.209700	0.731834	0.007318
44.174100	0.731891	0.007319
44.136800	0.731954	0.007320
44.099000	0.732034	0.007320
44.061500	0.732133	0.007321
44.024300	0.732267	0.007323
43.985100	0.732397	0.007324
43.947400	0.732507	0.007325
43.909800	0.732603	0.007326
43.870100	0.732625	0.007326
43.830000	0.732636	0.007326
43.789600	0.732618	0.007326
43.747900	0.732590	0.007326
43.705500	0.732541	0.007325
43.664700	0.732479	0.007325
43.622300	0.732419	0.007324
43.579300	0.732336	0.007323
43.536000	0.732240	0.007322
43.492500	0.732109	0.007321
43.449300	0.731953	0.007320
43.406200	0.731779	0.007318
43.363700	0.731571	0.007316
43.321700	0.731360	0.007314
43.279700	0.731137	0.007311
43.237400	0.730922	0.007309
43.196000	0.730693	0.007307
43.155000	0.730454	0.007305
43.114500	0.730230	0.007302
43.074200	0.729966	0.007300
43.034200	0.729692	0.007297
42.994600	0.729417	0.007294
42.954900	0.729139	0.007291
42.915600	0.728878	0.007289
42.875600	0.728645	0.007286
42.836300	0.728424	0.007284
42.796300	0.728218	0.007282
42.757000	0.728059	0.007281
42.718200	0.727920	0.007279
42.680000	0.727832	0.007278
42.641200	0.727770	0.007278
42.601900	0.727785	0.007278
42.563900	0.727804	0.007278
42.525600	0.727840	0.007278
42.488900	0.727885	0.007279
42.452100	0.727949	0.007279
42.414000	0.727996	0.007280
42.376900	0.728048	0.007280
42.340500	0.728102	0.007281
42.306400	0.728145	0.007281
42.272700	0.728159	0.007282
42.238700	0.728159	0.007282
42.205000	0.728163	0.007282
42.171600	0.728157	0.007282
42.138600	0.728177	0.007282
42.105400	0.728189	0.007282
42.073400	0.728202	0.007282
42.041400	0.728243	0.007282
42.009000	0.728310	0.007283
41.977100	0.728409	0.007284
41.944100	0.728543	0.007285
41.910800	0.728703	0.007287
41.878100	0.728910	0.007289
41.844400	0.729148	0.007291
41.812100	0.729392	0.007294
41.779900	0.729668	0.007297
41.748300	0.729954	0.007300
41.717900	0.730234	0.007302
41.688500	0.730496	0.007305
41.659200	0.730771	0.007308
41.629600	0.731025	0.007310
41.599300	0.731278	0.007313
41.569200	0.731488	0.007315
41.539300	0.731693	0.007317
41.510500	0.731866	0.007319
41.481500	0.732049	0.007320
41.452600	0.732191	0.007322
41.423500	0.732265	0.007323
41.395500	0.732283	0.007323
41.366900	0.732244	0.007322
41.338900	0.732109	0.007321
41.309900	0.731916	0.007319
41.282600	0.731688	0.007317
41.254400	0.731438	0.007314
41.227000	0.731190	0.007312
41.200800	0.730947	0.007309
41.174800	0.730717	0.007307
41.147700	0.730493	0.007305
41.122500	0.730280	0.007303
41.097400	0.730069	0.007301
41.070700	0.729875	0.007299
41.046700	0.729685	0.007297
41.022700	0.729493	0.007295
40.999700	0.729317	0.007293
40.977400	0.729153	0.007292
40.956300	0.729044	0.007290
40.936000	0.728916	0.007289
40.914500	0.728793	0.007288
40.894800	0.728650	0.007287
40.875200	0.728486	0.007285
40.856600	0.728305	0.007283
40.838400	0.728090	0.007281
40.820200	0.727850	0.007279
40.801300	0.727593	0.007276
40.782500	0.727320	0.007273
40.764000	0.727034	0.007270
40.744800	0.726740	0.007267
40.724500	0.726454	0.007265
40.703700	0.726179	0.007262
40.682000	0.725915	0.007259
40.660200	0.725686	0.007257
40.638700	0.725489	0.007255
40.616300	0.725333	0.007253
40.594300	0.725218	0.007252
40.572200	0.725168	0.007252
40.550500	0.725137	0.007251
40.529600	0.725139	0.007251
40.507700	0.725180	0.007252
40.487100	0.725253	0.007253
40.465400	0.725387	0.007254
40.444600	0.725556	0.007256
40.426600	0.725746	0.007257
40.406500	0.725962	0.007260
40.385800	0.726173	0.007262
40.364900	0.726381	0.007264
40.343900	0.726584	0.007266
40.323200	0.726776	0.007268
40.301000	0.726965	0.007270
40.279500	0.727148	0.007271
40.257100	0.727326	0.007273
40.234100	0.727506	0.007275
40.210100	0.727680	0.007277
40.185900	0.727847	0.007278
40.160700	0.728006	0.007280
40.136700	0.728158	0.007282
40.112800	0.728285	0.007283
40.090100	0.728390	0.007284
40.066200	0.728463	0.007285
40.043100	0.728533	0.007285
40.018500	0.728619	0.007286
39.994500	0.728696	0.007287
39.969200	0.728706	0.007287
39.944500	0.728710	0.007287
39.920400	0.728727	0.007287
39.896300	0.728751	0.007288
39.872900	0.728777	0.007288
39.848600	0.728827	0.007288
39.824700	0.728875	0.007289
39.801300	0.728922	0.007289
39.777500	0.728960	0.007290
39.753300	0.728990	0.007290
39.728100	0.729015	0.007290
39.701800	0.729030	0.007290
39.676300	0.729029	0.007290
39.651200	0.729005	0.007290
39.624400	0.728966	0.007290
39.598800	0.728910	0.007289
39.573500	0.728826	0.007288
39.547200	0.728708	0.007287
39.520100	0.728550	0.007286
39.492800	0.728348	0.007283
39.466300	0.728113	0.007281
39.440600	0.727846	0.007278
39.413400	0.727533	0.007275
39.388400	0.727224	0.007272
39.364200	0.726873	0.007269
39.339500	0.726527	0.007265
39.316200	0.726191	0.007262
39.292700	0.725888	0.007259
39.268900	0.725611	0.007256
39.244500	0.725370	0.007254
39.220100	0.725166	0.007252
39.197400	0.724998	0.007250
39.173500	0.724859	0.007249
39.149500	0.724762	0.007248
39.125800	0.724700	0.007247
39.102200	0.724689	0.007247
39.078800	0.724699	0.007247
39.056300	0.724761	0.007248
39.033500	0.724853	0.007249
39.011200	0.724959	0.007250
38.989300	0.725080	0.007251
38.966100	0.725201	0.007252
38.942800	0.725319	0.007253
38.921900	0.725419	0.007254
38.901100	0.725506	0.007255
38.880000	0.725581	0.007256
38.860800	0.725639	0.007256
38.840800	0.725693	0.007257
38.821600	0.725740	0.007257
38.799300	0.725809	0.007258
38.776400	0.725880	0.007259
38.753700	0.725957	0.007260
38.733400	0.726034	0.007260
38.714200	0.726098	0.007261
38.691600	0.726156	0.007262
38.669700	0.726220	0.007262
38.649300	0.726276	0.007263
38.626600	0.726328	0.007263
38.603200	0.726369	0.007264
38.579000	0.726401	0.007264
38.554000	0.726433	0.007264
38.530400	0.726542	0.007265
38.505800	0.726568	0.007266
38.481900	0.726604	0.007266
38.458600	0.726638	0.007266
38.434900	0.726687	0.007267
38.411500	0.726747	0.007267
38.389100	0.726824	0.007268
38.364100	0.726921	0.007269
38.340600	0.727015	0.007270
38.317900	0.727117	0.007271
38.298000	0.727207	0.007272
38.276900	0.727280	0.007273
38.254400	0.727314	0.007273
38.230700	0.727344	0.007273
38.206700	0.727359	0.007274
38.184000	0.727377	0.007274
38.161000	0.727373	0.007274
38.138700	0.727342	0.007273
38.115600	0.727301	0.007273
38.092900	0.727269	0.007273
38.069900	0.727230	0.007272
38.045800	0.727194	0.007272
38.024200	0.727159	0.007272
38.001900	0.727122	0.007271
37.979900	0.727094	0.007271
37.960800	0.727064	0.007271
37.939900	0.727029	0.007270
37.918700	0.727005	0.007270
37.898800	0.726973	0.007270
37.878200	0.726946	0.007269
37.859300	0.726923	0.007269
37.842300	0.726897	0.007269
37.822500	0.726889	0.007269
37.801700	0.726889	0.007269
37.781200	0.726908	0.007269
37.761100	0.726949	0.007269
37.742000	0.726995	0.007270
37.725100	0.727010	0.007270
37.704700	0.727049	0.007270
37.684500	0.727114	0.007271
37.663700	0.727211	0.007272
37.642700	0.727276	0.007273
37.621400	0.727317	0.007273
37.599900	0.727311	0.007273
37.579100	0.727274	0.007273
37.558500	0.727218	0.007272
37.541800	0.727124	0.007271
37.522200	0.727005	0.007270
37.502000	0.726865	0.007269
37.480800	0.726697	0.007267
37.462800	0.726517	0.007265
37.444700	0.726315	0.007263
37.423700	0.726120	0.007261
37.402600	0.725925	0.007259
37.381300	0.725736	0.007257
37.361900	0.725554	0.007256
37.341100	0.725387	0.007254
37.319100	0.725243	0.007252
37.298300	0.725121	0.007251
37.278600	0.725014	0.007250
37.257700	0.724922	0.007249
37.237100	0.724855	0.007249
37.216300	0.724799	0.007248
37.198900	0.724762	0.007248
37.182700	0.724736	0.007247
37.165200	0.724732	0.007247
37.147100	0.724773	0.007248
37.128400	0.724813	0.007248
37.111900	0.724865	0.007249
37.092100	0.724900	0.007249
37.074700	0.724961	0.007250
37.059900	0.725017	0.007250
37.045400	0.725087	0.007251
37.030700	0.725159	0.007252
37.017900	0.725213	0.007252
37.003800	0.725272	0.007253
36.990600	0.725305	0.007253
36.977500	0.725320	0.007253
36.963200	0.725335	0.007253
36.950400	0.725339	0.007253
36.937400	0.725342	0.007253
36.925300	0.725338	0.007253
36.914400	0.725334	0.007253
36.901400	0.725326	0.007253
36.888500	0.725310	0.007253
36.874100	0.725301	0.007253
36.860000	0.725292	0.007253
36.848200	0.725276	0.007253
36.837200	0.725233	0.007252
36.828000	0.725186	0.007252
36.817000	0.725134	0.007251
36.806200	0.725080	0.007251
36.793500	0.725025	0.007250
36.782300	0.724965	0.007250
36.771700	0.724858	0.007249
36.760700	0.724842	0.007248
36.750900	0.724834	0.007248
36.738800	0.724814	0.007248
36.728700	0.724826	0.007248
36.718200	0.724863	0.007249
36.706200	0.724861	0.007249
36.696200	0.724973	0.007250
36.687000	0.725082	0.007251
36.676900	0.725211	0.007252
36.667500	0.725333	0.007253
36.656200	0.725442	0.007254
36.644900	0.725541	0.007255
36.636400	0.725622	0.007256
36.630300	0.725689	0.007257
36.622500	0.725727	0.007257
36.614700	0.725748	0.007257
36.607100	0.725763	0.007258
36.595800	0.725766	0.007258
36.588200	0.725772	0.007258
36.580000	0.725761	0.007258
36.572100	0.725730	0.007257
36.563800	0.725699	0.007257
36.554600	0.725648	0.007256
36.547600	0.725585	0.007256
36.539200	0.725499	0.007255
36.530100	0.725404	0.007254
36.517700	0.725308	0.007253
36.508200	0.725205	0.007252
36.499600	0.725019	0.007250
36.491100	0.724939	0.007249
36.480600	0.724859	0.007249
36.468800	0.724808	0.007248
36.460500	0.724706	0.007247
36.453700	0.724661	0.007247
36.445100	0.724642	0.007246
36.437300	0.724646	0.007246
36.431900	0.724686	0.007247
36.426000	0.724744	0.007247
36.419100	0.724828	0.007248
36.411200	0.724928	0.007249
36.404900	0.725018	0.007250
36.397900	0.725108	0.007251
36.391100	0.725194	0.007252
36.384800	0.725235	0.007252
36.378000	0.725241	0.007252
36.372600	0.725210	0.007252
36.364500	0.725160	0.007252
36.357100	0.725086	0.007251
36.349600	0.724998	0.007250
36.342200	0.724902	0.007249
36.333400	0.724774	0.007248
36.325300	0.724650	0.007247
36.315700	0.724508	0.007245
36.307200	0.724361	0.007244
36.297200	0.724214	0.007242
36.287600	0.724060	0.007241
36.277600	0.723951	0.007240
36.267400	0.723838	0.007238
36.259000	0.723738	0.007237
36.250300	0.723650	0.007237
36.242300	0.723591	0.007236
36.234400	0.723557	0.007236
36.226400	0.723530	0.007235
36.220200	0.723480	0.007235
36.212500	0.723487	0.007235
36.204900	0.723506	0.007235
36.198300	0.723550	0.007236
36.190900	0.723616	0.007236
36.184200	0.723705	0.007237
36.177500	0.723814	0.007238
36.170900	0.723925	0.007239
36.164300	0.724002	0.007240
36.157600	0.724068	0.007241
36.149900	0.724122	0.007241
36.142800	0.724180	0.007242
36.134700	0.724212	0.007242
36.127400	0.724215	0.007242
36.119900	0.724192	0.007242
36.111100	0.724145	0.007241
36.102500	0.724087	0.007241
36.094300	0.724012	0.007240
36.085400	0.723929	0.007239
36.076600	0.723844	0.007238
36.068600	0.723746	0.007237
36.060900	0.723657	0.007237
36.053300	0.723561	0.007236
36.044600	0.723473	0.007235
36.037200	0.723386	0.007234
36.028500	0.723301	0.007233
36.020500	0.723228	0.007232
36.012300	0.723156	0.007232
36.004200	0.723092	0.007231
35.996300	0.723048	0.007230
35.988200	0.723023	0.007230
35.980300	0.723022	0.007230
35.973000	0.723067	0.007231
35.966300	0.723141	0.007231
35.961100	0.723272	0.007233
35.954600	0.723453	0.007235
35.948800	0.723710	0.007237
35.943600	0.723916	0.007239
35.939000	0.724133	0.007241
35.933800	0.724396	0.007244
35.929100	0.724640	0.007246
35.925100	0.724866	0.007249
35.919600	0.725056	0.007251
35.915200	0.725205	0.007252
35.911400	0.725335	0.007253
35.906200	0.725431	0.007254
35.903700	0.725505	0.007255
35.900500	0.725563	0.007256
35.896000	0.725600	0.007256
35.893100	0.725621	0.007256
35.890900	0.725627	0.007256
35.890000	0.725617	0.007256
35.888500	0.725609	0.007256
35.889100	0.725588	0.007256
35.889500	0.725559	0.007256
35.890800	0.725514	0.007255
35.892900	0.725469	0.007255
35.894900	0.725419	0.007254
35.898800	0.725357	0.007254
35.903200	0.725298	0.007253
35.908300	0.725221	0.007252
35.915500	0.725146	0.007251
35.922900	0.725074	0.007251
35.929900	0.724984	0.007250
35.939700	0.724904	0.007249
35.950000	0.724884	0.007249
35.961600	0.724753	0.007248
35.974300	0.724617	0.007246
35.988200	0.724454	0.007245
36.002100	0.724331	0.007243
36.018200	0.724149	0.007241
36.034800	0.723940	0.007239
36.051900	0.723698	0.007237
36.071100	0.723425	0.007234
36.089400	0.723124	0.007231
36.108800	0.722810	0.007228
36.130000	0.722481	0.007225
36.152600	0.722156	0.007222
36.176300	0.721835	0.007218
36.202400	0.721522	0.007215
36.229700	0.721238	0.007212
36.255800	0.720975	0.007210
36.284300	0.720750	0.007208
36.314100	0.720556	0.007206
36.345400	0.720412	0.007204
36.378300	0.720311	0.007203
36.412500	0.720245	0.007202
36.450100	0.720241	0.007202
36.488300	0.720279	0.007203
36.528400	0.720379	0.007204
36.570900	0.720519	0.007205
36.615500	0.720695	0.007207
36.661400	0.720901	0.007209
36.708700	0.721097	0.007211
36.757500	0.721307	0.007213
36.807100	0.721519	0.007215
36.857900	0.721734	0.007217
36.909900	0.721924	0.007219
36.963500	0.722095	0.007221
37.017500	0.722252	0.007223
37.073500	0.722425	0.007224
37.132500	0.722545	0.007225
37.193500	0.722633	0.007226
37.256900	0.722688	0.007227
37.320000	0.722705	0.007227
37.385400	0.722688	0.007227
37.453900	0.722652	0.007227
37.522400	0.722611	0.007226
37.592800	0.722613	0.007226
37.662800	0.722680	0.007227
37.736600	0.722807	0.007228
37.810900	0.722998	0.007230
37.886100	0.723254	0.007233
37.962300	0.723554	0.007236
38.041500	0.723887	0.007239
38.121600	0.724276	0.007243
38.202600	0.724660	0.007247
38.286100	0.725044	0.007250
38.371200	0.725423	0.007254
38.457600	0.725788	0.007258
38.543500	0.726144	0.007261
38.630400	0.726481	0.007265
38.719200	0.726801	0.007268
38.808900	0.727099	0.007271
38.899100	0.727378	0.007274
38.988500	0.727632	0.007276
39.078600	0.727858	0.007279
39.168100	0.728047	0.007280
39.257100	0.728213	0.007282
39.347500	0.728337	0.007283
39.438300	0.728425	0.007284
39.530700	0.728477	0.007285
39.624500	0.728467	0.007285
39.718100	0.728420	0.007284
39.814100	0.728319	0.007283
39.910900	0.728162	0.007282
40.007800	0.727970	0.007280
40.105600	0.727742	0.007277
40.204800	0.727498	0.007275
40.303100	0.727248	0.007272
40.403400	0.726999	0.007270
40.502900	0.726760	0.007268
40.603800	0.726532	0.007265
40.705300	0.726323	0.007263
40.808100	0.726107	0.007261
40.911100	0.725914	0.007259
41.014500	0.725740	0.007257
41.119900	0.725559	0.007256
41.224800	0.725379	0.007254
41.332200	0.725205	0.007252
41.439700	0.725031	0.007250
41.547400	0.724858	0.007249
41.654100	0.724678	0.007247
41.761400	0.724494	0.007245
41.868200	0.724300	0.007243
41.974800	0.724108	0.007241
42.082800	0.723905	0.007239
42.190200	0.723687	0.007237
42.297400	0.723473	0.007235
42.405000	0.723243	0.007232
42.513700	0.723018	0.007230
42.621700	0.722788	0.007228
42.730300	0.722577	0.007226
42.837900	0.722428	0.007224
42.945100	0.722328	0.007223
43.052000	0.722358	0.007224
43.158500	0.722461	0.007225
43.265400	0.722653	0.007227
43.371500	0.722934	0.007229
43.478400	0.723301	0.007233
43.585500	0.723714	0.007237
43.693300	0.724164	0.007242
43.800200	0.724627	0.007246
43.907700	0.725084	0.007251
44.015600	0.725533	0.007255
44.124200	0.725954	0.007260
44.231800	0.726345	0.007263
44.337700	0.726711	0.007267
44.441300	0.727035	0.007270
44.547900	0.727325	0.007273
44.651600	0.727572	0.007276
44.753100	0.727777	0.007278
44.855300	0.727933	0.007279
44.955900	0.728058	0.007281
45.057600	0.728125	0.007281
45.157100	0.728159	0.007282
45.255500	0.728162	0.007282
45.353800	0.728113	0.007281
45.451600	0.728033	0.007280
45.549100	0.727911	0.007279
45.646400	0.727753	0.007278
45.743800	0.727584	0.007276
45.840600	0.727401	0.007274
45.937700	0.727231	0.007272
46.034400	0.727069	0.007271
46.133400	0.726903	0.007269
46.232100	0.726743	0.007267
46.330000	0.726596	0.007266
46.429400	0.726455	0.007265
46.529000	0.726317	0.007263
46.630700	0.726197	0.007262
46.732800	0.726108	0.007261
46.836800	0.726075	0.007261
46.940300	0.726106	0.007261
47.043800	0.726205	0.007262
47.145800	0.726379	0.007264
47.247600	0.726594	0.007266
47.349300	0.726844	0.007268
47.451300	0.727069	0.007271
47.552500	0.727265	0.007273
47.654000	0.727436	0.007274
47.755200	0.727581	0.007276
47.856000	0.727686	0.007277
47.955200	0.727768	0.007278
48.056000	0.727828	0.007278
48.155500	0.727835	0.007278
48.255900	0.727866	0.007279
48.356400	0.727884	0.007279
48.457600	0.727897	0.007279
48.558300	0.727917	0.007279
48.658300	0.727927	0.007279
48.757900	0.727936	0.007279
48.857600	0.727929	0.007279
48.957300	0.727911	0.007279
49.057000	0.727806	0.007278
49.158000	0.727755	0.007278
49.257500	0.727701	0.007277
49.358400	0.727673	0.007277
49.459700	0.727618	0.007276
49.561600	0.727626	0.007276
49.664200	0.727631	0.007276
49.767200	0.727629	0.007276
49.870100	0.727629	0.007276
49.973100	0.727609	0.007276
50.075600	0.727570	0.007276
50.177500	0.727502	0.007275
50.279600	0.727419	0.007274
50.379500	0.727300	0.007273
50.481700	0.727161	0.007272
50.581900	0.726978	0.007270
50.683000	0.726760	0.007268
50.783700	0.726512	0.007265
50.884700	0.726231	0.007262
50.986700	0.725932	0.007259
51.086800	0.725645	0.007256
51.186000	0.725355	0.007254
51.284100	0.725080	0.007251
51.383300	0.724856	0.007249
51.482600	0.724701	0.007247
51.582400	0.724619	0.007246
51.681400	0.724618	0.007246
51.779500	0.724709	0.007247
51.880400	0.724900	0.007249
51.982800	0.725181	0.007252
52.084000	0.725551	0.007256
52.187000	0.725984	0.007260
52.292200	0.726480	0.007265
52.397900	0.726881	0.007269
52.505200	0.727399	0.007274
52.612800	0.727955	0.007280
52.720500	0.728534	0.007285
52.829800	0.729130	0.007291
52.940400	0.729764	0.007298
53.051800	0.730347	0.007303
53.162700	0.730848	0.007308
53.273300	0.731190	0.007312
53.384700	0.731387	0.007314
53.497000	0.731410	0.007314
53.608600	0.731271	0.007313
53.719900	0.730973	0.007310
53.830400	0.730564	0.007306
53.940700	0.730068	0.007301
54.051600	0.729530	0.007295
54.163300	0.728982	0.007290
54.275300	0.728429	0.007284
54.387400	0.727899	0.007279
54.499200	0.727391	0.007274
54.610900	0.726901	0.007269
54.723900	0.726461	0.007265
54.837200	0.726069	0.007261
54.951800	0.725758	0.007258
55.065500	0.725537	0.007255
55.181900	0.725403	0.007254
55.296700	0.725352	0.007254
55.410300	0.725398	0.007254
55.525700	0.725517	0.007255
55.639500	0.725706	0.007257
55.754000	0.725959	0.007260
55.868900	0.726261	0.007263
55.984200	0.726593	0.007266
56.100200	0.726994	0.007270
56.215900	0.727369	0.007274
56.330800	0.727765	0.007278
56.444100	0.728158	0.007282
56.557900	0.728567	0.007286
56.671100	0.728979	0.007290
56.784600	0.729383	0.007294
56.895300	0.729789	0.007298
57.007500	0.730196	0.007302
57.119300	0.730607	0.007306
57.231700	0.731018	0.007310
57.345500	0.731408	0.007314
57.459000	0.731764	0.007318
57.573400	0.732128	0.007321
57.687500	0.732374	0.007324
57.801400	0.732554	0.007326
57.915700	0.732670	0.007327
58.029500	0.732718	0.007327
58.144200	0.732705	0.007327
58.259900	0.732626	0.007326
58.376800	0.732464	0.007325
58.494200	0.732232	0.007322
58.613100	0.731946	0.007319
58.732000	0.731616	0.007316
58.852600	0.731238	0.007312
58.972800	0.730838	0.007308
59.092600	0.730394	0.007304
59.211500	0.729946	0.007299
59.330300	0.729493	0.007295
59.450200	0.729023	0.007290
59.571800	0.728562	0.007286
59.693300	0.728103	0.007281
59.815600	0.727662	0.007277
59.936800	0.727240	0.007272
60.058300	0.726954	0.007270
60.180500	0.726661	0.007267
60.303500	0.726463	0.007265
60.425200	0.726301	0.007263
60.547200	0.726287	0.007263
60.669000	0.726317	0.007263
60.791000	0.726433	0.007264
60.911000	0.726622	0.007266
61.030600	0.726880	0.007269
61.150700	0.727196	0.007272
61.270500	0.727553	0.007276
61.391100	0.727937	0.007279
61.510700	0.728334	0.007283
61.630100	0.728744	0.007287
61.748500	0.729144	0.007291
61.866800	0.729548	0.007295
61.985300	0.729944	0.007299
62.103400	0.730316	0.007303
62.221500	0.730705	0.007307
62.339400	0.731079	0.007311
62.458100	0.731451	0.007315
62.576000	0.731812	0.007318
62.696600	0.732160	0.007322
62.817500	0.732473	0.007325
62.939000	0.732734	0.007327
63.060900	0.732944	0.007329
63.182900	0.733095	0.007331
63.305200	0.733183	0.007332
63.428500	0.733204	0.007332
63.551900	0.733160	0.007332
63.676300	0.733055	0.007331
63.800900	0.732907	0.007329
63.926500	0.732733	0.007327
64.050800	0.732700	0.007327
64.177800	0.732579	0.007326
64.306700	0.732442	0.007324
64.434500	0.732314	0.007323
64.564900	0.732170	0.007322
64.695300	0.731970	0.007320
64.827300	0.731754	0.007318
64.956800	0.731548	0.007315
65.086400	0.731381	0.007314
65.217400	0.731268	0.007313
65.349500	0.731231	0.007312
65.482600	0.731255	0.007313
65.616600	0.731343	0.007313
65.750700	0.731475	0.007315
65.885600	0.731645	0.007316
66.022000	0.731829	0.007318
66.157600	0.732009	0.007320
66.293700	0.732186	0.007322
66.428800	0.732338	0.007323
66.563600	0.732467	0.007325
66.698300	0.732576	0.007326
66.832300	0.732649	0.007326
66.964700	0.732679	0.007327
67.096200	0.732638	0.007326
67.226700	0.732548	0.007325
67.357900	0.732416	0.007324
67.487900	0.732271	0.007323
67.618600	0.732128	0.007321
67.748600	0.732050	0.007321
67.877200	0.731913	0.007319
68.006200	0.731826	0.007318
68.136600	0.731782	0.007318
68.264900	0.731797	0.007318
68.393700	0.731846	0.007318
68.523300	0.731996	0.007320
68.654000	0.732162	0.007322
68.785400	0.732327	0.007323
68.917000	0.732488	0.007325
69.048900	0.732662	0.007327
69.182700	0.732840	0.007328
69.315900	0.733010	0.007330
69.451000	0.733180	0.007332
69.585200	0.733351	0.007334
69.719900	0.733493	0.007335
69.854500	0.733585	0.007336
69.988900	0.733609	0.007336
70.124500	0.733507	0.007335
70.259800	0.733399	0.007334
70.395900	0.733232	0.007332
70.533500	0.733015	0.007330
70.670900	0.732764	0.007328
70.808400	0.732498	0.007325
70.946800	0.732223	0.007322
71.085100	0.731960	0.007320
71.223600	0.731706	0.007317
71.360700	0.731477	0.007315
71.499500	0.731276	0.007313
71.638200	0.731112	0.007311
71.777400	0.730990	0.007310
71.916300	0.730865	0.007309
72.055400	0.730906	0.007309
72.194200	0.731031	0.007310
72.332500	0.731264	0.007313
72.470300	0.731585	0.007316
72.605700	0.731989	0.007320
72.740300	0.732476	0.007325
72.872400	0.733018	0.007330
73.004100	0.733554	0.007336
73.136700	0.734069	0.007341
73.268600	0.734510	0.007345
73.400800	0.734903	0.007349
73.532800	0.735167	0.007352
73.664700	0.735344	0.007353
73.797600	0.735435	0.007354
73.930900	0.735469	0.007355
74.063000	0.735442	0.007354
74.194500	0.735383	0.007354
74.325300	0.735308	0.007353
74.455600	0.735235	0.007352
74.585100	0.735173	0.007352
74.715700	0.735131	0.007351
74.846800	0.735111	0.007351
74.979900	0.735099	0.007351
75.112500	0.735102	0.007351
75.246000	0.735132	0.007351
75.379100	0.735148	0.007351
75.513400	0.735163	0.007352
75.646800	0.735169	0.007352
75.780200	0.735152	0.007352
75.913500	0.735115	0.007351
76.047400	0.735064	0.007351
76.180100	0.734979	0.007350
76.313700	0.734882	0.007349
76.447300	0.734774	0.007348
76.580400	0.734658	0.007347
76.711900	0.734506	0.007345
76.841900	0.734345	0.007343
76.972600	0.734170	0.007342
77.103100	0.733984	0.007340
77.234500	0.733768	0.007338
77.366300	0.733514	0.007335
77.499000	0.733239	0.007332
77.631500	0.732958	0.007330
77.765000	0.732650	0.007327
77.899700	0.732372	0.007324
78.035000	0.732137	0.007321
78.167200	0.731980	0.007320
78.301600	0.731901	0.007319
78.433200	0.731894	0.007319
78.562800	0.731959	0.007320
78.693300	0.732085	0.007321
78.822700	0.732278	0.007323
78.951700	0.732521	0.007325
79.079900	0.732819	0.007328
79.208300	0.733153	0.007332
79.335600	0.733524	0.007335
79.462600	0.733923	0.007339
79.589000	0.734351	0.007344
79.714800	0.734805	0.007348
79.841300	0.735276	0.007353
79.968000	0.735765	0.007358
80.093900	0.736240	0.007362
80.220300	0.736781	0.007368
80.346100	0.737343	0.007373
80.470000	0.737893	0.007379
80.596000	0.738444	0.007384
80.721500	0.738955	0.007390
80.846700	0.739410	0.007394
80.973600	0.739726	0.007397
81.101700	0.740028	0.007400
81.232100	0.740188	0.007402
81.361700	0.740213	0.007402
81.493600	0.740097	0.007401
81.625600	0.739830	0.007398
81.759200	0.739430	0.007394
81.891600	0.738941	0.007389
82.025200	0.738402	0.007384
82.160800	0.737818	0.007378
82.296300	0.737213	0.007372
82.432100	0.736600	0.007366
82.569200	0.735996	0.007360
82.707700	0.735400	0.007354
82.846700	0.734812	0.007348
82.984000	0.734279	0.007343
83.122500	0.733823	0.007338
83.260300	0.733490	0.007335
83.397900	0.733293	0.007333
83.535100	0.733230	0.007332
83.671200	0.733305	0.007333
83.806800	0.733507	0.007335
83.943500	0.733808	0.007338
84.079300	0.734209	0.007342
84.215100	0.734648	0.007346
84.351500	0.735151	0.007352
84.488200	0.735695	0.007357
84.624000	0.736254	0.007363
84.759900	0.736870	0.007369
84.895600	0.737452	0.007375
85.032100	0.737994	0.007380
85.166700	0.738545	0.007385
85.301300	0.738928	0.007389
85.434300	0.739220	0.007392
85.568000	0.739405	0.007394
85.700800	0.739482	0.007395
85.832400	0.739478	0.007395
85.964000	0.739397	0.007394
86.096300	0.739262	0.007393
86.228100	0.739099	0.007391
86.360200	0.738934	0.007389
86.492700	0.738776	0.007388
86.627700	0.738643	0.007386
86.763700	0.738547	0.007385
86.899700	0.738453	0.007385
87.038400	0.738402	0.007384
87.177400	0.738364	0.007384
87.316400	0.738330	0.007383
87.456200	0.738294	0.007383
87.596200	0.738236	0.007382
87.734900	0.738170	0.007382
87.873800	0.738074	0.007381
88.012700	0.737962	0.007380
88.152300	0.737827	0.007378
88.293000	0.737678	0.007377
88.436100	0.737533	0.007375
88.581100	0.737402	0.007374
88.723900	0.737289	0.007373
88.867200	0.737189	0.007372
89.010900	0.737109	0.007371
89.154100	0.737056	0.007371
89.294400	0.737008	0.007370
89.434100	0.736967	0.007370
89.572300	0.736941	0.007369
89.710500	0.736893	0.007369
89.848000	0.736844	0.007368
89.982200	0.736780	0.007368
90.114800	0.736741	0.007367
90.248400	0.736751	0.007368
90.382700	0.736819	0.007368
90.516900	0.736946	0.007369
90.652100	0.737144	0.007371
90.787300	0.737412	0.007374
90.922200	0.737723	0.007377
91.058900	0.738081	0.007381
91.193900	0.738478	0.007385
91.328700	0.738891	0.007389
91.462900	0.739288	0.007393
91.597400	0.739650	0.007397
91.729400	0.739972	0.007400
91.861900	0.740244	0.007402
91.993300	0.740474	0.007405
92.123900	0.740657	0.007407
92.254200	0.740791	0.007408
92.382900	0.740863	0.007409
92.514200	0.740961	0.007410
92.646300	0.741050	0.007411
92.779100	0.741144	0.007411
92.912400	0.741233	0.007412
93.046000	0.741292	0.007413
93.180600	0.741329	0.007413
93.314800	0.741348	0.007413
93.448000	0.741329	0.007413
93.581900	0.741290	0.007413
93.715800	0.741148	0.007411
93.850300	0.740950	0.007410
93.983600	0.740695	0.007407
94.118800	0.740359	0.007404
94.255000	0.739967	0.007400
94.391900	0.739526	0.007395
94.528600	0.739077	0.007391
94.664600	0.738631	0.007386
94.801000	0.738215	0.007382
94.935800	0.737848	0.007378
95.069100	0.737554	0.007376
95.201100	0.737331	0.007373
95.332800	0.737182	0.007372
95.462200	0.737122	0.007371
95.593500	0.737160	0.007372
95.724700	0.737293	0.007373
95.856600	0.737515	0.007375
95.990600	0.737811	0.007378
96.126900	0.738170	0.007382
96.261900	0.738575	0.007386
96.396600	0.739055	0.007391
96.530100	0.739536	0.007395
96.664900	0.740063	0.007401
96.797900	0.740592	0.007406
96.930600	0.741091	0.007411
97.064100	0.741564	0.007416
97.195900	0.741961	0.007420
97.326800	0.742323	0.007423
97.456300	0.742646	0.007426
97.583800	0.742907	0.007429
97.712300	0.743135	0.007431
97.841800	0.743295	0.007433
97.970700	0.743381	0.007434
98.099800	0.743388	0.007434
98.228700	0.743282	0.007433
98.356800	0.743130	0.007431
98.484600	0.742924	0.007429
98.613100	0.742686	0.007427
98.743700	0.742406	0.007424
98.874700	0.742105	0.007421
99.007400	0.741798	0.007418
99.139800	0.741505	0.007415
99.274100	0.741211	0.007412
99.409100	0.740908	0.007409
99.542800	0.740609	0.007406
99.677400	0.740314	0.007403
99.812200	0.740023	0.007400
99.948800	0.739755	0.007398
100.086000	0.739521	0.007395
100.222000	0.739322	0.007393
100.357000	0.739185	0.007392
100.491000	0.739082	0.007391
100.627000	0.739037	0.007390
100.764000	0.739042	0.007390
100.900000	0.739112	0.007391
101.036000	0.739265	0.007393
101.171000	0.739484	0.007395
101.307000	0.739760	0.007398
101.442000	0.740079	0.007401
101.578000	0.740430	0.007404
101.715000	0.740798	0.007408
101.853000	0.741147	0.007411
101.990000	0.741495	0.007415
102.129000	0.741790	0.007418
102.266000	0.742082	0.007421
102.403000	0.742365	0.007424
102.538000	0.742628	0.007426
102.674000	0.742903	0.007429
102.807000	0.743185	0.007432
102.940000	0.743481	0.007435
103.071000	0.743799	0.007438
103.202000	0.744131	0.007441
103.334000	0.744472	0.007445
103.466000	0.744809	0.007448
103.600000	0.745092	0.007451
103.734000	0.745315	0.007453
103.868000	0.745463	0.007455
104.004000	0.745533	0.007455
104.138000	0.745527	0.007455
104.274000	0.745465	0.007455
104.411000	0.745334	0.007453
104.548000	0.745153	0.007452
104.687000	0.744900	0.007449
104.826000	0.744615	0.007446
104.966000	0.744299	0.007443
105.109000	0.743955	0.007440
105.253000	0.743597	0.007436
105.396000	0.743223	0.007432
105.540000	0.742860	0.007429
105.682000	0.742503	0.007425
105.824000	0.742168	0.007422
105.967000	0.741785	0.007418
106.110000	0.741382	0.007414
106.249000	0.740954	0.007410
106.390000	0.740512	0.007405
106.531000	0.740094	0.007401
106.672000	0.739715	0.007397
106.812000	0.739405	0.007394
106.954000	0.739211	0.007392
107.097000	0.739137	0.007391
107.239000	0.739181	0.007392
107.383000	0.739351	0.007394
107.527000	0.739621	0.007396
107.674000	0.739998	0.007400
107.820000	0.740448	0.007404
107.966000	0.740937	0.007409
108.111000	0.741451	0.007415
108.257000	0.741974	0.007420
108.401000	0.742490	0.007425
108.546000	0.743004	0.007430
108.690000	0.743493	0.007435
108.833000	0.743958	0.007440
108.974000	0.744392	0.007444
109.112000	0.744776	0.007448
109.249000	0.745095	0.007451
109.384000	0.745339	0.007453
109.520000	0.745510	0.007455
109.657000	0.745612	0.007456
109.795000	0.745648	0.007456
109.936000	0.745624	0.007456
110.077000	0.745516	0.007455
110.221000	0.745380	0.007454
110.364000	0.745145	0.007451
110.507000	0.744836	0.007448
110.653000	0.744467	0.007445
110.797000	0.744043	0.007440
110.942000	0.743599	0.007436
111.087000	0.743104	0.007431
111.230000	0.742578	0.007426
111.373000	0.742033	0.007420
111.516000	0.741502	0.007415
111.659000	0.741003	0.007410
111.802000	0.740577	0.007406
111.944000	0.740257	0.007403
112.086000	0.740041	0.007400
112.227000	0.739942	0.007399
112.368000	0.739954	0.007400
112.508000	0.740055	0.007401
112.649000	0.740259	0.007403
112.790000	0.740542	0.007405
112.932000	0.740880	0.007409
113.073000	0.741271	0.007413
113.216000	0.741693	0.007417
113.359000	0.742160	0.007422
113.503000	0.742709	0.007427
113.648000	0.743272	0.007433
113.794000	0.743870	0.007439
113.937000	0.744484	0.007445
114.083000	0.745093	0.007451
114.227000	0.745654	0.007457
114.371000	0.746184	0.007462
114.515000	0.746666	0.007467
114.658000	0.747068	0.007471
114.802000	0.747420	0.007474
114.943000	0.747661	0.007477
115.083000	0.747775	0.007478
115.223000	0.747754	0.007478
115.362000	0.747614	0.007476
115.501000	0.747359	0.007474
115.640000	0.747005	0.007470
115.779000	0.746582	0.007466
115.918000	0.746132	0.007461
116.059000	0.745640	0.007456
116.201000	0.745177	0.007452
116.345000	0.744719	0.007447
116.489000	0.744251	0.007443
116.632000	0.743798	0.007438
116.776000	0.743348	0.007433
116.919000	0.742891	0.007429
117.063000	0.742498	0.007425
117.205000	0.742160	0.007422
117.348000	0.741887	0.007419
117.491000	0.741689	0.007417
117.633000	0.741568	0.007416
117.774000	0.741530	0.007415
117.913000	0.741559	0.007416
118.052000	0.741677	0.007417
118.189000	0.741867	0.007419
118.325000	0.742114	0.007421
118.463000	0.742400	0.007424
118.599000	0.742749	0.007427
118.734000	0.743120	0.007431
118.870000	0.743505	0.007435
119.006000	0.743891	0.007439
119.142000	0.744264	0.007443
119.279000	0.744619	0.007446
119.417000	0.744955	0.007450
119.557000	0.745275	0.007453
119.699000	0.745559	0.007456
119.842000	0.745809	0.007458
119.985000	0.746042	0.007460
120.126000	0.746236	0.007462
120.266000	0.746415	0.007464
120.404000	0.746571	0.007466
120.542000	0.746710	0.007467
120.681000	0.746817	0.007468
120.818000	0.746874	0.007469
120.957000	0.746852	0.007469
121.095000	0.746725	0.007467
121.232000	0.746497	0.007465
121.370000	0.746186	0.007462
121.508000	0.745780	0.007458
121.645000	0.745309	0.007453
121.783000	0.744780	0.007448
121.921000	0.744234	0.007442
122.058000	0.743731	0.007437
122.194000	0.743307	0.007433
122.329000	0.742977	0.007430
122.465000	0.742746	0.007427
122.600000	0.742610	0.007426
122.735000	0.742583	0.007426
122.869000	0.742638	0.007426
123.005000	0.742774	0.007428
123.141000	0.742962	0.007430
123.278000	0.743175	0.007432
123.415000	0.743397	0.007434
123.554000	0.743589	0.007436
123.691000	0.743791	0.007438
123.829000	0.743972	0.007440
123.966000	0.744152	0.007442
124.103000	0.744330	0.007443
124.240000	0.744511	0.007445
124.377000	0.744710	0.007447
124.513000	0.744929	0.007449
124.649000	0.745167	0.007452
124.784000	0.745423	0.007454
124.919000	0.745697	0.007457
125.056000	0.746006	0.007460
125.190000	0.746333	0.007463
125.325000	0.746669	0.007467
125.462000	0.746995	0.007470
125.598000	0.747299	0.007473
125.735000	0.747552	0.007476
125.872000	0.747736	0.007477
126.008000	0.747852	0.007479
126.144000	0.747892	0.007479
126.281000	0.747859	0.007479
126.418000	0.747760	0.007478
126.555000	0.747622	0.007476
126.692000	0.747430	0.007474
126.830000	0.747210	0.007472
126.966000	0.746954	0.007470
127.103000	0.746686	0.007467
127.240000	0.746387	0.007464
127.377000	0.746004	0.007460
127.515000	0.745598	0.007456
127.652000	0.745135	0.007451
127.790000	0.744624	0.007446
127.928000	0.744068	0.007441
128.065000	0.743495	0.007435
128.207000	0.742894	0.007429
128.348000	0.742293	0.007423
128.490000	0.741723	0.007417
128.633000	0.741182	0.007412
128.776000	0.740705	0.007407
128.919000	0.740328	0.007403
129.063000	0.740071	0.007401
129.207000	0.739941	0.007399
129.350000	0.739938	0.007399
129.494000	0.740058	0.007401
129.638000	0.740280	0.007403
129.781000	0.740588	0.007406
129.924000	0.740955	0.007410
130.066000	0.741356	0.007414
130.209000	0.741773	0.007418
130.353000	0.742210	0.007422
130.497000	0.742658	0.007427
130.640000	0.743068	0.007431
130.783000	0.743506	0.007435
130.925000	0.743892	0.007439
131.067000	0.744229	0.007442
131.210000	0.744512	0.007445
131.352000	0.744751	0.007448
131.495000	0.744919	0.007449
131.640000	0.745004	0.007450
131.784000	0.745024	0.007450
131.930000	0.744969	0.007450
132.076000	0.744840	0.007448
132.221000	0.744657	0.007447
132.366000	0.744435	0.007444
132.512000	0.744154	0.007442
132.658000	0.743848	0.007438
132.805000	0.743536	0.007435
132.951000	0.743214	0.007432
133.097000	0.742892	0.007429
133.243000	0.742563	0.007426
133.387000	0.742247	0.007422
133.532000	0.741931	0.007419
133.676000	0.741623	0.007416
133.820000	0.741334	0.007413
133.963000	0.741054	0.007411
134.105000	0.740800	0.007408
134.246000	0.740599	0.007406
134.387000	0.740435	0.007404
134.528000	0.740334	0.007403
134.668000	0.740286	0.007403
134.808000	0.740309	0.007403
134.948000	0.740407	0.007404
135.088000	0.740584	0.007406
135.228000	0.740844	0.007408
135.368000	0.741175	0.007412
135.507000	0.741557	0.007416
135.644000	0.742048	0.007420
135.783000	0.742600	0.007426
135.924000	0.743173	0.007432
136.062000	0.743738	0.007437
136.203000	0.744241	0.007442
136.343000	0.744661	0.007447
136.484000	0.745010	0.007450
136.624000	0.745257	0.007453
136.765000	0.745408	0.007454
136.906000	0.745479	0.007455
137.046000	0.745453	0.007455
137.186000	0.745352	0.007454
137.325000	0.745159	0.007452
137.464000	0.744898	0.007449
137.603000	0.744593	0.007446
137.743000	0.744204	0.007442
137.882000	0.743760	0.007438
138.022000	0.743268	0.007433
138.162000	0.742734	0.007427
138.301000	0.742160	0.007422
138.440000	0.741552	0.007416
138.578000	0.740906	0.007409
138.717000	0.740254	0.007403
138.854000	0.739588	0.007396
138.990000	0.738922	0.007389
139.127000	0.738239	0.007382
139.263000	0.737586	0.007376
139.399000	0.736935	0.007369
139.535000	0.736323	0.007363
139.670000	0.735749	0.007357
139.804000	0.735248	0.007352
139.940000	0.734815	0.007348
140.074000	0.734460	0.007345
140.207000	0.734206	0.007342
140.341000	0.734043	0.007340
140.475000	0.733967	0.007340
140.609000	0.733950	0.007340
140.743000	0.734007	0.007340
140.877000	0.734091	0.007341
141.012000	0.734215	0.007342
141.149000	0.734342	0.007343
141.289000	0.734481	0.007345
141.431000	0.734621	0.007346
141.574000	0.734757	0.007348
141.717000	0.734885	0.007349
141.860000	0.734984	0.007350
142.002000	0.735056	0.007351
142.145000	0.735113	0.007351
142.287000	0.735124	0.007351
142.429000	0.735062	0.007351
142.572000	0.734923	0.007349
142.713000	0.734698	0.007347
142.853000	0.734392	0.007344
142.993000	0.733985	0.007340
143.133000	0.733466	0.007335
143.276000	0.732838	0.007328
143.417000	0.732100	0.007321
143.558000	0.731292	0.007313
143.701000	0.730384	0.007304
143.844000	0.729402	0.007294
143.987000	0.728366	0.007284
144.130000	0.727284	0.007273
144.273000	0.726161	0.007262
144.416000	0.725003	0.007250
144.560000	0.723814	0.007238
144.706000	0.722627	0.007226
144.851000	0.721378	0.007214
144.997000	0.720081	0.007201
145.142000	0.718731	0.007187
145.287000	0.717360	0.007174
145.431000	0.715919	0.007159
145.574000	0.714434	0.007144
145.716000	0.712935	0.007129
145.859000	0.711422	0.007114
146.003000	0.709908	0.007099
146.148000	0.708402	0.007084
146.292000	0.706910	0.007069
146.435000	0.705436	0.007054
146.577000	0.703996	0.007040
146.719000	0.702596	0.007026
146.861000	0.701203	0.007012
147.003000	0.699813	0.006998
147.144000	0.698410	0.006984
147.284000	0.696998	0.006970
147.424000	0.695555	0.006956
147.566000	0.694080	0.006941
147.707000	0.692562	0.006926
147.848000	0.690929	0.006909
147.989000	0.689299	0.006893
148.129000	0.687627	0.006876
148.267000	0.685876	0.006859
148.405000	0.684075	0.006841
148.541000	0.682223	0.006822
148.677000	0.680311	0.006803
148.811000	0.678307	0.006783
148.945000	0.676205	0.006762
149.080000	0.673979	0.006740
149.216000	0.671643	0.006716
149.354000	0.669184	0.006692
149.494000	0.666619	0.006666
149.634000	0.663891	0.006639
149.774000	0.661036	0.006610
149.914000	0.658075	0.006581
150.051000	0.655012	0.006550
150.189000	0.651860	0.006519
150.328000	0.648643	0.006486
150.466000	0.645350	0.006454
150.607000	0.642034	0.006420
150.748000	0.638672	0.006387
150.889000	0.635293	0.006353
151.030000	0.631924	0.006319
151.172000	0.628577	0.006286
151.312000	0.625294	0.006253
151.450000	0.622071	0.006221
151.588000	0.618921	0.006189
151.724000	0.615844	0.006158
151.858000	0.612835	0.006128
151.988000	0.609871	0.006099
152.120000	0.606945	0.006069
152.253000	0.604042	0.006040
152.385000	0.601156	0.006012
152.517000	0.598294	0.005983
152.650000	0.595419	0.005954
152.783000	0.592544	0.005925
152.914000	0.589657	0.005897
153.046000	0.586740	0.005867
153.178000	0.583772	0.005838
153.312000	0.580765	0.005808
153.448000	0.577696	0.005777
153.584000	0.574556	0.005746
153.720000	0.571318	0.005713
153.860000	0.567986	0.005680
153.999000	0.564541	0.005645
154.138000	0.560968	0.005610
154.280000	0.557271	0.005573
154.420000	0.553450	0.005535
154.561000	0.549515	0.005495
154.703000	0.545461	0.005455
154.844000	0.541325	0.005413
154.984000	0.537089	0.005371
155.125000	0.532789	0.005328
155.266000	0.528421	0.005284
155.408000	0.524003	0.005240
155.551000	0.519544	0.005195
155.693000	0.515051	0.005151
155.838000	0.510549	0.005105
155.981000	0.506026	0.005060
156.126000	0.501498	0.005015
156.269000	0.496967	0.004970
156.413000	0.492490	0.004925
156.557000	0.488075	0.004881
156.700000	0.483738	0.004837
156.843000	0.479525	0.004795
156.986000	0.475409	0.004754
157.127000	0.471396	0.004714
157.269000	0.467482	0.004675
157.408000	0.463670	0.004637
157.548000	0.459921	0.004599
157.686000	0.456253	0.004563
157.824000	0.452627	0.004526
157.960000	0.449039	0.004490
158.096000	0.445464	0.004455
158.233000	0.441900	0.004419
158.371000	0.438335	0.004383
158.512000	0.434763	0.004348
158.656000	0.431187	0.004312
158.801000	0.427612	0.004276
158.949000	0.424032	0.004240
159.096000	0.420451	0.004205
159.243000	0.416827	0.004168
159.390000	0.413193	0.004132
159.534000	0.409548	0.004095
159.678000	0.405875	0.004059
159.819000	0.402170	0.004022
159.960000	0.398426	0.003984
160.100000	0.394637	0.003946
160.240000	0.390806	0.003908
160.381000	0.386920	0.003869
160.523000	0.382975	0.003830
160.665000	0.378977	0.003790
160.807000	0.374951	0.003750
160.948000	0.370902	0.003709
161.089000	0.366854	0.003669
161.229000	0.362829	0.003628
161.370000	0.358846	0.003588
161.508000	0.354900	0.003549
161.647000	0.351000	0.003510
161.787000	0.347206	0.003472
161.930000	0.343405	0.003434
162.074000	0.339652	0.003397
162.217000	0.335946	0.003359
162.361000	0.332275	0.003323
162.504000	0.328626	0.003286
162.647000	0.325017	0.003250
162.787000	0.321463	0.003215
162.927000	0.317971	0.003180
163.066000	0.314555	0.003146
163.205000	0.311195	0.003112
163.344000	0.307893	0.003079
163.486000	0.304640	0.003046
163.626000	0.301447	0.003014
163.769000	0.298291	0.002983
163.910000	0.295172	0.002952
164.050000	0.292080	0.002921
164.191000	0.289025	0.002890
164.329000	0.285987	0.002860
164.467000	0.282987	0.002830
164.604000	0.279990	0.002800
164.741000	0.276992	0.002770
164.877000	0.273985	0.002740
165.016000	0.270987	0.002710
165.152000	0.267965	0.002680
165.284000	0.264919	0.002649
165.418000	0.261862	0.002619
165.554000	0.258741	0.002587
165.690000	0.255647	0.002556
165.827000	0.252536	0.002525
165.964000	0.249407	0.002494
166.100000	0.246261	0.002463
166.236000	0.243107	0.002431
166.372000	0.239935	0.002399
166.509000	0.236737	0.002367
166.648000	0.233514	0.002335
166.787000	0.230267	0.002303
166.926000	0.226996	0.002270
167.065000	0.223715	0.002237
167.204000	0.220428	0.002204
167.343000	0.217147	0.002171
167.482000	0.213877	0.002139
167.623000	0.210634	0.002106
167.764000	0.207421	0.002074
167.908000	0.204247	0.002042
168.052000	0.201126	0.002011
168.198000	0.198055	0.001981
168.346000	0.195052	0.001951
168.495000	0.192116	0.001921
168.644000	0.189246	0.001892
168.793000	0.186431	0.001864
168.941000	0.183661	0.001837
169.087000	0.180939	0.001809
169.235000	0.178274	0.001783
169.379000	0.175638	0.001756
169.522000	0.173052	0.001731
169.668000	0.170507	0.001705
169.812000	0.168010	0.001680
169.958000	0.165562	0.001656
170.104000	0.163162	0.001632
170.250000	0.160785	0.001608
170.395000	0.158430	0.001584
170.541000	0.156071	0.001561
170.687000	0.153674	0.001537
170.834000	0.151238	0.001512
170.981000	0.148707	0.001487
171.128000	0.146097	0.001461
171.275000	0.143419	0.001434
171.420000	0.140662	0.001407
171.564000	0.137828	0.001378
171.706000	0.134927	0.001349
171.848000	0.131979	0.001320
171.990000	0.128984	0.001290
172.133000	0.125943	0.001259
172.276000	0.122880	0.001229
172.419000	0.119784	0.001198
172.562000	0.116675	0.001167
172.706000	0.113553	0.001136
172.852000	0.110439	0.001104
172.998000	0.107323	0.001073
173.147000	0.104204	0.001042
173.296000	0.101108	0.001011
173.447000	0.098046	0.000980
173.598000	0.095084	0.000951
173.750000	0.092114	0.000921
173.903000	0.089200	0.000892
174.052000	0.086366	0.000864
174.202000	0.083617	0.000836
174.352000	0.080964	0.000810
174.502000	0.078385	0.000784
174.653000	0.075872	0.000759
174.805000	0.073412	0.000734
174.958000	0.070991	0.000710
175.111000	0.068596	0.000686
175.263000	0.066237	0.000662
175.414000	0.063891	0.000639
175.566000	0.061546	0.000615
175.716000	0.059183	0.000592
175.866000	0.056805	0.000568
176.018000	0.054420	0.000544
176.170000	0.052022	0.000520
176.323000	0.049607	0.000496
176.473000	0.047151	0.000472
176.622000	0.044646	0.000446
176.770000	0.042091	0.000421
176.919000	0.039464	0.000395
177.067000	0.036780	0.000368
177.216000	0.034032	0.000340
177.365000	0.031231	0.000312
177.513000	0.028383	0.000284
177.661000	0.025483	0.000255
177.808000	0.022561	0.000226
177.955000	0.019627	0.000196
178.102000	0.016671	0.000167
178.247000	0.013733	0.000137
178.393000	0.010798	0.000108
178.538000	0.007895	0.000079
178.682000	0.005030	0.000050
178.826000	0.002233	0.000022
178.969000	-0.000480	-0.000005
179.112000	-0.003100	-0.000031
179.255000	-0.005603	-0.000056
179.396000	-0.007997	-0.000080
179.536000	-0.010308	-0.000103
179.675000	-0.012491	-0.000125
179.814000	-0.014573	-0.000146
179.954000	-0.016549	-0.000165
180.092000	-0.018431	-0.000184
180.226000	-0.020310	-0.000203
180.361000	-0.022150	-0.000221
180.494000	-0.023959	-0.000240
180.624000	-0.025751	-0.000258
180.754000	-0.027525	-0.000275
180.884000	-0.029273	-0.000293
181.014000	-0.031010	-0.000310
181.144000	-0.032726	-0.000327
181.276000	-0.034423	-0.000344
181.407000	-0.036107	-0.000361
181.539000	-0.037768	-0.000378
181.670000	-0.039423	-0.000394
181.802000	-0.041061	-0.000411
181.935000	-0.042693	-0.000427
182.070000	-0.044325	-0.000443
182.209000	-0.045960	-0.000460
182.350000	-0.047617	-0.000476
182.493000	-0.049299	-0.000493
182.640000	-0.051015	-0.000510
182.786000	-0.052746	-0.000527
182.936000	-0.054482	-0.000545
183.085000	-0.056235	-0.000562
183.235000	-0.057949	-0.000579
183.384000	-0.059647	-0.000596
183.533000	-0.061313	-0.000613
183.682000	-0.062967	-0.000630
183.832000	-0.064551	-0.000646
183.982000	-0.066080	-0.000661
184.129000	-0.067566	-0.000676
184.278000	-0.069008	-0.000690
184.425000	-0.070406	-0.000704
184.574000	-0.071748	-0.000717
184.721000	-0.073023	-0.000730
184.869000	-0.074217	-0.000742
185.017000	-0.075356	-0.000754
185.163000	-0.076423	-0.000764
185.309000	-0.077437	-0.000774
185.452000	-0.078394	-0.000784
185.595000	-0.079292	-0.000793
185.738000	-0.080161	-0.000802
185.880000	-0.080990	-0.000810
186.021000	-0.081794	-0.000818
186.166000	-0.082575	-0.000826
186.309000	-0.083337	-0.000833
186.454000	-0.084079	-0.000841
186.599000	-0.084795	-0.000848
186.743000	-0.085508	-0.000855
186.887000	-0.086194	-0.000862
187.032000	-0.086880	-0.000869
187.178000	-0.087530	-0.000875
187.326000	-0.088172	-0.000882
187.474000	-0.088775	-0.000888
187.621000	-0.089307	-0.000893
187.768000	-0.089843	-0.000898
187.914000	-0.090376	-0.000904
188.061000	-0.090968	-0.000910
188.207000	-0.091514	-0.000915
188.352000	-0.092087	-0.000921
188.494000	-0.092701	-0.000927
188.636000	-0.093365	-0.000934
188.778000	-0.094086	-0.000941
188.923000	-0.094850	-0.000948
189.070000	-0.095639	-0.000956
189.217000	-0.096448	-0.000964
189.365000	-0.097268	-0.000973
189.511000	-0.098069	-0.000981
189.656000	-0.098864	-0.000989
189.801000	-0.099604	-0.000996
189.946000	-0.100270	-0.001003
190.090000	-0.100836	-0.001008
190.235000	-0.101297	-0.001013
190.381000	-0.101661	-0.001017
190.529000	-0.101906	-0.001019
190.676000	-0.102046	-0.001020
190.825000	-0.102098	-0.001021
190.974000	-0.102072	-0.001021
191.125000	-0.101968	-0.001020
191.279000	-0.101802	-0.001018
191.435000	-0.101587	-0.001016
191.592000	-0.101413	-0.001014
191.752000	-0.101127	-0.001011
191.913000	-0.100816	-0.001008
192.075000	-0.100458	-0.001005
192.236000	-0.100078	-0.001001
192.397000	-0.099652	-0.000997
192.558000	-0.099211	-0.000992
192.719000	-0.098760	-0.000988
192.878000	-0.098291	-0.000983
193.038000	-0.097836	-0.000978
193.196000	-0.097402	-0.000974
193.351000	-0.097006	-0.000970
193.505000	-0.096679	-0.000967
193.654000	-0.096429	-0.000964
193.800000	-0.096254	-0.000963
193.944000	-0.096159	-0.000962
194.082000	-0.096145	-0.000961
194.219000	-0.096230	-0.000962
194.355000	-0.096402	-0.000964
194.491000	-0.096684	-0.000967
194.628000	-0.097008	-0.000970
194.765000	-0.097380	-0.000974
194.902000	-0.097777	-0.000978
195.041000	-0.098181	-0.000982
195.180000	-0.098570	-0.000986
195.320000	-0.098930	-0.000989
195.460000	-0.099241	-0.000992
195.597000	-0.099462	-0.000995
195.734000	-0.099572	-0.000996
195.871000	-0.099581	-0.000996
196.006000	-0.099475	-0.000995
196.140000	-0.099306	-0.000993
196.274000	-0.099005	-0.000990
196.411000	-0.098621	-0.000986
196.548000	-0.098177	-0.000982
196.685000	-0.097668	-0.000977
196.824000	-0.097150	-0.000972
196.964000	-0.096590	-0.000966
197.102000	-0.096011	-0.000960
197.239000	-0.095408	-0.000954
197.376000	-0.094832	-0.000948
197.514000	-0.094303	-0.000943
197.653000	-0.093827	-0.000938
197.793000	-0.093451	-0.000935
197.933000	-0.093138	-0.000931
198.072000	-0.092903	-0.000929
198.211000	-0.092735	-0.000927
198.348000	-0.092636	-0.000926
198.486000	-0.092611	-0.000926
198.625000	-0.092639	-0.000926
198.764000	-0.092721	-0.000927
198.904000	-0.092845	-0.000928
199.047000	-0.093026	-0.000930
199.188000	-0.093255	-0.000933
199.333000	-0.093511	-0.000935
199.480000	-0.093776	-0.000938
199.624000	-0.094021	-0.000940
199.766000	-0.094241	-0.000942
199.905000	-0.094418	-0.000944
200.044000	-0.094555	-0.000946
200.183000	-0.094631	-0.000946
200.324000	-0.094656	-0.000947
200.463000	-0.094651	-0.000947
200.600000	-0.094605	-0.000946
200.736000	-0.094493	-0.000945
200.871000	-0.094325	-0.000943
201.006000	-0.094043	-0.000940
201.138000	-0.093751	-0.000938
201.270000	-0.093417	-0.000934
201.402000	-0.093030	-0.000930
201.534000	-0.092636	-0.000926
201.667000	-0.092216	-0.000922
201.799000	-0.091796	-0.000918
201.930000	-0.091422	-0.000914
202.060000	-0.091055	-0.000911
202.191000	-0.090730	-0.000907
202.321000	-0.090452	-0.000905
202.454000	-0.090220	-0.000902
202.589000	-0.090019	-0.000900
202.724000	-0.089845	-0.000898
202.859000	-0.089708	-0.000897
202.997000	-0.089587	-0.000896
203.135000	-0.089464	-0.000895
203.274000	-0.089342	-0.000893
203.411000	-0.089217	-0.000892
203.546000	-0.089083	-0.000891
203.682000	-0.088952	-0.000890
203.817000	-0.088810	-0.000888
203.954000	-0.088688	-0.000887
204.092000	-0.088575	-0.000886
204.231000	-0.088490	-0.000885
204.370000	-0.088428	-0.000884
204.512000	-0.088391	-0.000884
204.653000	-0.088377	-0.000884
204.796000	-0.088418	-0.000884
204.939000	-0.088431	-0.000884
205.079000	-0.088420	-0.000884
205.221000	-0.088347	-0.000883
205.362000	-0.088260	-0.000883
205.502000	-0.088164	-0.000882
205.640000	-0.087969	-0.000880
205.779000	-0.087866	-0.000879
205.918000	-0.087762	-0.000878
206.058000	-0.087657	-0.000877
206.200000	-0.087548	-0.000875
206.343000	-0.087461	-0.000875
206.488000	-0.087352	-0.000874
206.633000	-0.087224	-0.000872
206.776000	-0.087082	-0.000871
206.918000	-0.086910	-0.000869
207.057000	-0.086704	-0.000867
207.196000	-0.086480	-0.000865
207.334000	-0.086233	-0.000862
207.474000	-0.085968	-0.000860
207.614000	-0.085702	-0.000857
207.754000	-0.085435	-0.000854
207.893000	-0.085164	-0.000852
208.028000	-0.084889	-0.000849
208.161000	-0.084611	-0.000846
208.292000	-0.084326	-0.000843
208.422000	-0.084047	-0.000840
208.550000	-0.083764	-0.000838
208.679000	-0.083491	-0.000835
208.808000	-0.083234	-0.000832
208.937000	-0.082996	-0.000830
209.066000	-0.082800	-0.000828
209.194000	-0.082668	-0.000827
209.320000	-0.082594	-0.000826
209.449000	-0.082596	-0.000826
209.579000	-0.082628	-0.000826
209.707000	-0.082711	-0.000827
209.839000	-0.082781	-0.000828
209.972000	-0.082900	-0.000829
210.108000	-0.083033	-0.000830
210.244000	-0.083143	-0.000831
210.381000	-0.083263	-0.000833
210.519000	-0.083343	-0.000833
210.657000	-0.083407	-0.000834
210.799000	-0.083447	-0.000834
210.941000	-0.083465	-0.000835
211.087000	-0.083441	-0.000834
211.233000	-0.083375	-0.000834
211.380000	-0.083250	-0.000833
211.528000	-0.083058	-0.000831
211.675000	-0.082807	-0.000828
211.821000	-0.082487	-0.000825
211.966000	-0.082118	-0.000821
212.110000	-0.081711	-0.000817
212.252000	-0.081275	-0.000813
212.391000	-0.080810	-0.000808
212.525000	-0.080312	-0.000803
212.657000	-0.079824	-0.000798
212.786000	-0.079336	-0.000793
212.916000	-0.078866	-0.000789
213.045000	-0.078434	-0.000784
213.175000	-0.078051	-0.000781
213.303000	-0.077724	-0.000777
213.434000	-0.077478	-0.000775
213.568000	-0.077318	-0.000773
213.702000	-0.077206	-0.000772
213.840000	-0.077131	-0.000771
213.980000	-0.077117	-0.000771
214.121000	-0.077117	-0.000771
214.263000	-0.077150	-0.000771
214.404000	-0.077230	-0.000772
214.547000	-0.077358	-0.000774
214.692000	-0.077590	-0.000776
214.833000	-0.077821	-0.000778
214.974000	-0.078086	-0.000781
215.114000	-0.078373	-0.000784
215.254000	-0.078677	-0.000787
215.394000	-0.078999	-0.000790
215.529000	-0.079323	-0.000793
215.661000	-0.079596	-0.000796
215.792000	-0.079796	-0.000798
215.922000	-0.079889	-0.000799
216.052000	-0.079880	-0.000799
216.181000	-0.079752	-0.000798
216.310000	-0.079508	-0.000795
216.438000	-0.079167	-0.000792
216.568000	-0.078722	-0.000787
216.697000	-0.078203	-0.000782
216.828000	-0.077647	-0.000776
216.962000	-0.077062	-0.000771
217.096000	-0.076465	-0.000765
217.233000	-0.075867	-0.000759
217.368000	-0.075263	-0.000753
217.500000	-0.074679	-0.000747
217.629000	-0.074113	-0.000741
217.753000	-0.073616	-0.000736
217.874000	-0.073169	-0.000732
217.995000	-0.072788	-0.000728
218.118000	-0.072445	-0.000724
218.241000	-0.072172	-0.000722
218.365000	-0.071928	-0.000719
218.488000	-0.071781	-0.000718
218.614000	-0.071708	-0.000717
218.743000	-0.071742	-0.000717
218.873000	-0.071821	-0.000718
219.007000	-0.071937	-0.000719
219.142000	-0.072082	-0.000721
219.278000	-0.072230	-0.000722
219.418000	-0.072390	-0.000724
219.557000	-0.072563	-0.000726
219.697000	-0.072757	-0.000728
219.839000	-0.072958	-0.000730
219.980000	-0.073179	-0.000732
220.122000	-0.073415	-0.000734
220.264000	-0.073645	-0.000736
220.406000	-0.073872	-0.000739
220.546000	-0.074083	-0.000741
220.687000	-0.074243	-0.000742
220.828000	-0.074350	-0.000743
220.970000	-0.074386	-0.000744
221.112000	-0.074344	-0.000743
221.250000	-0.074201	-0.000742
221.388000	-0.074023	-0.000740
221.526000	-0.073781	-0.000738
221.663000	-0.073469	-0.000735
221.799000	-0.073089	-0.000731
221.938000	-0.072673	-0.000727
222.076000	-0.072195	-0.000722
222.217000	-0.071675	-0.000717
222.361000	-0.071111	-0.000711
222.510000	-0.070505	-0.000705
222.661000	-0.069884	-0.000699
222.813000	-0.069237	-0.000692
222.964000	-0.068621	-0.000686
223.113000	-0.068053	-0.000681
223.262000	-0.067590	-0.000676
223.410000	-0.067225	-0.000672
223.559000	-0.066978	-0.000670
223.705000	-0.066845	-0.000668
223.849000	-0.066812	-0.000668
223.992000	-0.066877	-0.000669
224.131000	-0.067014	-0.000670
224.270000	-0.067196	-0.000672
224.408000	-0.067416	-0.000674
224.545000	-0.067661	-0.000677
224.683000	-0.067913	-0.000679
224.823000	-0.068170	-0.000682
224.965000	-0.068408	-0.000684
225.108000	-0.068617	-0.000686
225.251000	-0.068777	-0.000688
225.392000	-0.068887	-0.000689
225.532000	-0.068951	-0.000690
225.671000	-0.068967	-0.000690
225.813000	-0.068944	-0.000689
225.959000	-0.068876	-0.000689
226.108000	-0.068780	-0.000688
226.258000	-0.068658	-0.000687
226.408000	-0.068477	-0.000685
226.558000	-0.068291	-0.000683
226.710000	-0.068043	-0.000680
226.864000	-0.067808	-0.000678
227.016000	-0.067510	-0.000675
227.166000	-0.067216	-0.000672
227.314000	-0.066884	-0.000669
227.461000	-0.066522	-0.000665
227.607000	-0.066153	-0.000662
227.754000	-0.065794	-0.000658
227.901000	-0.065424	-0.000654
228.053000	-0.065052	-0.000651
228.207000	-0.064680	-0.000647
228.368000	-0.064322	-0.000643
228.526000	-0.063990	-0.000640
228.683000	-0.063686	-0.000637
228.842000	-0.063393	-0.000634
229.001000	-0.063121	-0.000631
229.160000	-0.062876	-0.000629
229.321000	-0.062659	-0.000627
229.482000	-0.062455	-0.000625
229.640000	-0.062278	-0.000623
229.797000	-0.062141	-0.000621
229.950000	-0.062065	-0.000621
230.103000	-0.062066	-0.000621
230.253000	-0.062112	-0.000621
230.399000	-0.062232	-0.000622
230.545000	-0.062395	-0.000624
230.689000	-0.062597	-0.000626
230.831000	-0.062805	-0.000628
230.972000	-0.063006	-0.000630
231.111000	-0.063179	-0.000632
231.249000	-0.063368	-0.000634
231.387000	-0.063420	-0.000634
231.526000	-0.063421	-0.000634
231.663000	-0.063368	-0.000634
231.800000	-0.063267	-0.000633
231.937000	-0.063148	-0.000631
232.075000	-0.062997	-0.000630
232.214000	-0.062864	-0.000629
232.353000	-0.062725	-0.000627
232.493000	-0.062620	-0.000626
232.634000	-0.062522	-0.000625
232.777000	-0.062425	-0.000624
232.919000	-0.062307	-0.000623
233.062000	-0.062161	-0.000622
233.204000	-0.061986	-0.000620
233.347000	-0.061768	-0.000618
233.488000	-0.061507	-0.000615
233.629000	-0.061201	-0.000612
233.770000	-0.060844	-0.000608
233.912000	-0.060460	-0.000605
234.053000	-0.060058	-0.000601
234.192000	-0.059634	-0.000596
234.333000	-0.059202	-0.000592
234.473000	-0.058775	-0.000588
234.612000	-0.058360	-0.000584
234.752000	-0.057958	-0.000580
234.892000	-0.057589	-0.000576
235.033000	-0.057275	-0.000573
235.173000	-0.057031	-0.000570
235.313000	-0.056863	-0.000569
235.452000	-0.056775	-0.000568
235.592000	-0.056783	-0.000568
235.730000	-0.056889	-0.000569
235.868000	-0.057048	-0.000570
236.005000	-0.057257	-0.000573
236.141000	-0.057509	-0.000575
236.271000	-0.057762	-0.000578
236.398000	-0.057975	-0.000580
236.526000	-0.058166	-0.000582
236.653000	-0.058331	-0.000583
236.782000	-0.058460	-0.000585
236.909000	-0.058569	-0.000586
237.038000	-0.058640	-0.000586
237.167000	-0.058676	-0.000587
237.298000	-0.058675	-0.000587
237.428000	-0.058625	-0.000586
237.558000	-0.058510	-0.000585
237.688000	-0.058333	-0.000583
237.819000	-0.058093	-0.000581
237.952000	-0.057796	-0.000578
238.084000	-0.057440	-0.000574
238.217000	-0.057038	-0.000570
238.352000	-0.056595	-0.000566
238.485000	-0.056131	-0.000561
238.621000	-0.055650	-0.000557
238.757000	-0.055157	-0.000552
238.892000	-0.054654	-0.000547
239.032000	-0.054140	-0.000541
239.175000	-0.053639	-0.000536
239.318000	-0.053174	-0.000532
239.461000	-0.052774	-0.000528
239.603000	-0.052443	-0.000524
239.745000	-0.052186	-0.000522
239.888000	-0.052001	-0.000520
240.029000	-0.051880	-0.000519
240.170000	-0.051811	-0.000518
240.311000	-0.051820	-0.000518
240.452000	-0.051868	-0.000519
240.595000	-0.051966	-0.000520
240.738000	-0.052061	-0.000521
240.879000	-0.052205	-0.000522
241.018000	-0.052326	-0.000523
241.153000	-0.052506	-0.000525
241.287000	-0.052694	-0.000527
241.422000	-0.052904	-0.000529
241.557000	-0.053134	-0.000531
241.692000	-0.053396	-0.000534
241.826000	-0.053678	-0.000537
241.962000	-0.053955	-0.000540
242.100000	-0.054215	-0.000542
242.238000	-0.054423	-0.000544
242.377000	-0.054557	-0.000546
242.516000	-0.054604	-0.000546
242.655000	-0.054558	-0.000546
242.795000	-0.054427	-0.000544
242.935000	-0.054224	-0.000542
243.075000	-0.053940	-0.000539
243.216000	-0.053576	-0.000536
243.353000	-0.053146	-0.000531
243.491000	-0.052655	-0.000527
243.629000	-0.052132	-0.000521
243.769000	-0.051572	-0.000516
243.907000	-0.050990	-0.000510
244.047000	-0.050404	-0.000504
244.189000	-0.049809	-0.000498
244.331000	-0.049221	-0.000492
244.473000	-0.048654	-0.000487
244.614000	-0.048139	-0.000481
244.756000	-0.047611	-0.000476
244.899000	-0.047233	-0.000472
245.041000	-0.046852	-0.000469
245.182000	-0.046610	-0.000466
245.325000	-0.046446	-0.000464
245.469000	-0.046361	-0.000464
245.614000	-0.046330	-0.000463
245.761000	-0.046347	-0.000463
245.908000	-0.046400	-0.000464
246.056000	-0.046468	-0.000465
246.204000	-0.046557	-0.000466
246.353000	-0.046655	-0.000467
246.503000	-0.046763	-0.000468
246.657000	-0.046873	-0.000469
246.814000	-0.046999	-0.000470
246.968000	-0.047133	-0.000471
247.122000	-0.047287	-0.000473
247.272000	-0.047453	-0.000475
247.421000	-0.047635	-0.000476
247.566000	-0.047834	-0.000478
247.711000	-0.048036	-0.000480
247.855000	-0.048206	-0.000482
247.997000	-0.048339	-0.000483
248.140000	-0.048414	-0.000484
248.284000	-0.048421	-0.000484
248.429000	-0.048349	-0.000483
248.573000	-0.048203	-0.000482
248.716000	-0.048011	-0.000480
248.856000	-0.047747	-0.000477
248.990000	-0.047413	-0.000474
249.121000	-0.047023	-0.000470
249.244000	-0.046587	-0.000466
249.364000	-0.046121	-0.000461
249.482000	-0.045681	-0.000457
249.596000	-0.045169	-0.000452
249.708000	-0.044600	-0.000446
249.818000	-0.044018	-0.000440
249.928000	-0.043406	-0.000434
250.038000	-0.042849	-0.000428
250.148000	-0.042363	-0.000424
250.258000	-0.041966	-0.000420
250.371000	-0.041655	-0.000417
250.490000	-0.041436	-0.000414
250.609000	-0.041310	-0.000413
250.730000	-0.041263	-0.000413
250.854000	-0.041298	-0.000413
250.981000	-0.041384	-0.000414
251.111000	-0.041514	-0.000415
251.246000	-0.041684	-0.000417
251.387000	-0.041871	-0.000419
251.530000	-0.042069	-0.000421
251.670000	-0.042277	-0.000423
251.809000	-0.042498	-0.000425
251.949000	-0.042728	-0.000427
252.090000	-0.042947	-0.000429
252.229000	-0.043144	-0.000431
252.365000	-0.043296	-0.000433
252.503000	-0.043402	-0.000434
252.641000	-0.043468	-0.000435
252.779000	-0.043489	-0.000435
252.918000	-0.043461	-0.000435
253.057000	-0.043378	-0.000434
253.194000	-0.043244	-0.000432
253.331000	-0.043028	-0.000430
253.462000	-0.042798	-0.000428
253.598000	-0.042507	-0.000425
253.735000	-0.042094	-0.000421
253.870000	-0.041747	-0.000417
254.006000	-0.041323	-0.000413
254.144000	-0.040889	-0.000409
254.281000	-0.040442	-0.000404
254.416000	-0.039970	-0.000400
254.552000	-0.039494	-0.000395
254.687000	-0.039010	-0.000390
254.822000	-0.038520	-0.000385
254.956000	-0.038043	-0.000380
255.091000	-0.037598	-0.000376
255.227000	-0.037190	-0.000372
255.364000	-0.036809	-0.000368
255.502000	-0.036469	-0.000365
255.638000	-0.036181	-0.000362
255.773000	-0.035945	-0.000359
255.907000	-0.035789	-0.000358
256.039000	-0.035724	-0.000357
256.172000	-0.035713	-0.000357
256.304000	-0.035771	-0.000358
256.437000	-0.035892	-0.000359
256.567000	-0.036050	-0.000360
256.698000	-0.036249	-0.000362
256.828000	-0.036474	-0.000365
256.953000	-0.036717	-0.000367
257.075000	-0.036944	-0.000369
257.197000	-0.037143	-0.000371
257.316000	-0.037308	-0.000373
257.435000	-0.037428	-0.000374
257.554000	-0.037506	-0.000375
257.672000	-0.037544	-0.000375
257.790000	-0.037554	-0.000376
257.904000	-0.037531	-0.000375
258.019000	-0.037468	-0.000375
258.137000	-0.037471	-0.000375
258.256000	-0.037338	-0.000373
258.378000	-0.037189	-0.000372
258.501000	-0.037039	-0.000370
258.630000	-0.036839	-0.000368
258.765000	-0.036608	-0.000366
258.905000	-0.036347	-0.000363
259.050000	-0.036043	-0.000360
259.198000	-0.035697	-0.000357
259.350000	-0.035321	-0.000353
259.504000	-0.034901	-0.000349
259.657000	-0.034457	-0.000345
259.807000	-0.034009	-0.000340
259.954000	-0.033577	-0.000336
260.098000	-0.033161	-0.000332
260.241000	-0.032772	-0.000328
260.384000	-0.032424	-0.000324
260.527000	-0.032116	-0.000321
260.669000	-0.031842	-0.000318
260.812000	-0.031604	-0.000316
260.952000	-0.031409	-0.000314
261.088000	-0.031252	-0.000313
261.220000	-0.031154	-0.000312
261.350000	-0.031115	-0.000311
261.479000	-0.031142	-0.000311
261.610000	-0.031223	-0.000312
261.745000	-0.031343	-0.000313
261.882000	-0.031483	-0.000315
262.015000	-0.031630	-0.000316
262.142000	-0.031770	-0.000318
262.265000	-0.031902	-0.000319
262.388000	-0.032003	-0.000320
262.512000	-0.032073	-0.000321
262.636000	-0.032039	-0.000320
262.761000	-0.032016	-0.000320
262.885000	-0.032023	-0.000320
263.009000	-0.031961	-0.000320
263.131000	-0.031909	-0.000319
263.251000	-0.031846	-0.000318
263.373000	-0.031741	-0.000317
263.496000	-0.031592	-0.000316
263.618000	-0.031429	-0.000314
263.741000	-0.031237	-0.000312
263.864000	-0.031000	-0.000310
263.987000	-0.030722	-0.000307
264.111000	-0.030387	-0.000304
264.233000	-0.030003	-0.000300
264.354000	-0.029576	-0.000296
264.474000	-0.029116	-0.000291
264.593000	-0.028634	-0.000286
264.713000	-0.028151	-0.000282
264.834000	-0.027663	-0.000277
264.954000	-0.027188	-0.000272
265.078000	-0.026724	-0.000267
265.202000	-0.026307	-0.000263
265.330000	-0.025947	-0.000259
265.461000	-0.025671	-0.000257
265.595000	-0.025465	-0.000255
265.730000	-0.025339	-0.000253
265.867000	-0.025291	-0.000253
266.002000	-0.025309	-0.000253
266.135000	-0.025397	-0.000254
266.268000	-0.025545	-0.000255
266.402000	-0.025768	-0.000258
266.539000	-0.025989	-0.000260
266.681000	-0.026262	-0.000263
266.823000	-0.026625	-0.000266
266.962000	-0.026894	-0.000269
267.102000	-0.027176	-0.000272
267.241000	-0.027401	-0.000274
267.378000	-0.027572	-0.000276
267.513000	-0.027694	-0.000277
267.647000	-0.027745	-0.000277
267.781000	-0.027745	-0.000277
267.913000	-0.027681	-0.000277
268.045000	-0.027559	-0.000276
268.178000	-0.027379	-0.000274
268.311000	-0.027147	-0.000271
268.443000	-0.026877	-0.000269
268.575000	-0.026572	-0.000266
268.705000	-0.026225	-0.000262
268.838000	-0.025856	-0.000259
268.971000	-0.025454	-0.000255
269.104000	-0.025025	-0.000250
269.237000	-0.024573	-0.000246
269.371000	-0.024103	-0.000241
269.509000	-0.023610	-0.000236
269.651000	-0.023093	-0.000231
269.795000	-0.022574	-0.000226
269.944000	-0.022067	-0.000221
270.095000	-0.021595	-0.000216
270.244000	-0.021182	-0.000212
270.388000	-0.020837	-0.000208
270.525000	-0.020563	-0.000206
270.663000	-0.020361	-0.000204
270.803000	-0.020227	-0.000202
270.945000	-0.020158	-0.000202
271.090000	-0.020147	-0.000201
271.240000	-0.020195	-0.000202
271.390000	-0.020302	-0.000203
271.539000	-0.020434	-0.000204
271.689000	-0.020622	-0.000206
271.838000	-0.020847	-0.000208
271.989000	-0.021082	-0.000211
272.146000	-0.021344	-0.000213
272.306000	-0.021615	-0.000216
272.467000	-0.021860	-0.000219
272.627000	-0.022072	-0.000221
272.783000	-0.022236	-0.000222
272.937000	-0.022332	-0.000223
273.089000	-0.022396	-0.000224
273.240000	-0.022399	-0.000224
273.392000	-0.022344	-0.000223
273.547000	-0.022227	-0.000222
273.702000	-0.022036	-0.000220
273.856000	-0.021802	-0.000218
274.010000	-0.021503	-0.000215
274.164000	-0.021168	-0.000212
274.318000	-0.020798	-0.000208
274.471000	-0.020385	-0.000204
274.624000	-0.019955	-0.000200
274.778000	-0.019504	-0.000195
274.933000	-0.019019	-0.000190
275.087000	-0.018523	-0.000185
275.240000	-0.017967	-0.000180
275.393000	-0.017444	-0.000174
275.545000	-0.016935	-0.000169
275.696000	-0.016450	-0.000165
275.845000	-0.016031	-0.000160
275.993000	-0.015667	-0.000157
276.138000	-0.015365	-0.000154
276.283000	-0.015129	-0.000151
276.428000	-0.014956	-0.000150
276.573000	-0.014849	-0.000148
276.716000	-0.014796	-0.000148
276.861000	-0.014770	-0.000148
277.010000	-0.014850	-0.000148
277.159000	-0.015065	-0.000151
277.308000	-0.015206	-0.000152
277.457000	-0.015397	-0.000154
277.609000	-0.015603	-0.000156
277.763000	-0.015777	-0.000158
277.923000	-0.015943	-0.000159
278.087000	-0.016105	-0.000161
278.253000	-0.016268	-0.000163
278.419000	-0.016439	-0.000164
278.585000	-0.016608	-0.000166
278.745000	-0.016736	-0.000167
278.904000	-0.016830	-0.000168
279.062000	-0.016886	-0.000169
279.217000	-0.016896	-0.000169
279.369000	-0.016861	-0.000169
279.521000	-0.016769	-0.000168
279.672000	-0.016632	-0.000166
279.824000	-0.016435	-0.000164
279.975000	-0.016191	-0.000162
280.123000	-0.015885	-0.000159
280.271000	-0.015561	-0.000156
280.421000	-0.015177	-0.000152
280.568000	-0.014763	-0.000148
280.709000	-0.014311	-0.000143
280.844000	-0.013821	-0.000138
280.975000	-0.013296	-0.000133
281.109000	-0.012751	-0.000128
281.244000	-0.012178	-0.000122
281.378000	-0.011590	-0.000116
281.514000	-0.011024	-0.000110
281.651000	-0.010492	-0.000105
281.793000	-0.009992	-0.000100
281.936000	-0.009565	-0.000096
282.077000	-0.009230	-0.000092
282.218000	-0.008835	-0.000088
282.361000	-0.008697	-0.000087
282.501000	-0.008610	-0.000086
282.643000	-0.008585	-0.000086
282.784000	-0.008607	-0.000086
282.924000	-0.008633	-0.000086
283.066000	-0.008668	-0.000087
283.209000	-0.008703	-0.000087
283.350000	-0.008732	-0.000087
283.493000	-0.008765	-0.000088
283.635000	-0.008797	-0.000088
283.775000	-0.008841	-0.000088
283.911000	-0.008897	-0.000089
284.048000	-0.008985	-0.000090
284.187000	-0.009104	-0.000091
284.327000	-0.009236	-0.000092
284.469000	-0.009412	-0.000094
284.613000	-0.009589	-0.000096
284.758000	-0.009760	-0.000098
284.901000	-0.009907	-0.000099
285.046000	-0.010020	-0.000100
285.192000	-0.010096	-0.000101
285.332000	-0.010109	-0.000101
285.471000	-0.010054	-0.000101
285.611000	-0.009934	-0.000099
285.750000	-0.009755	-0.000098
285.889000	-0.009526	-0.000095
286.029000	-0.009213	-0.000092
286.163000	-0.008908	-0.000089
286.294000	-0.008554	-0.000086
286.424000	-0.008155	-0.000082
286.552000	-0.007693	-0.000077
286.679000	-0.007218	-0.000072
286.809000	-0.006720	-0.000067
286.937000	-0.006226	-0.000062
287.063000	-0.005776	-0.000058
287.186000	-0.005395	-0.000054
287.309000	-0.005081	-0.000051
287.427000	-0.004852	-0.000049
287.540000	-0.004684	-0.000047
287.646000	-0.004587	-0.000046
287.749000	-0.004533	-0.000045
287.850000	-0.004533	-0.000045
287.951000	-0.004588	-0.000046
288.048000	-0.004661	-0.000047
288.150000	-0.004753	-0.000048
288.251000	-0.004844	-0.000048
288.352000	-0.004910	-0.000049
288.454000	-0.004959	-0.000050
288.563000	-0.004979	-0.000050
288.679000	-0.004989	-0.000050
288.807000	-0.004980	-0.000050
288.941000	-0.005019	-0.000050
289.079000	-0.005014	-0.000050
289.218000	-0.004946	-0.000049
289.358000	-0.004854	-0.000049
289.499000	-0.004741	-0.000047
289.641000	-0.004573	-0.000046
289.785000	-0.004378	-0.000044
289.930000	-0.004168	-0.000042
290.073000	-0.003951	-0.000040
290.213000	-0.003712	-0.000037
290.349000	-0.003474	-0.000035
290.488000	-0.003228	-0.000032
290.629000	-0.002964	-0.000030
290.774000	-0.002692	-0.000027
290.920000	-0.002329	-0.000023
291.066000	-0.002064	-0.000021
291.207000	-0.001798	-0.000018
291.347000	-0.001571	-0.000016
291.484000	-0.001366	-0.000014
291.618000	-0.001183	-0.000012
291.750000	-0.001023	-0.000010
291.880000	-0.000879	-0.000009
292.006000	-0.000765	-0.000008
292.128000	-0.000681	-0.000007
292.246000	-0.000661	-0.000007
292.358000	-0.000578	-0.000006
292.468000	-0.000593	-0.000006
292.575000	-0.000607	-0.000006
292.681000	-0.000577	-0.000006
292.785000	-0.000507	-0.000005
292.890000	-0.000441	-0.000004
292.995000	-0.000357	-0.000004
293.099000	-0.000256	-0.000003
293.207000	-0.000118	-0.000001
293.315000	0.000053	0.000001
293.425000	0.000209	0.000002
293.534000	0.000373	0.000004
293.642000	0.000523	0.000005
293.747000	0.000654	0.000007
293.851000	0.000768	0.000008
293.954000	0.000862	0.000009
294.054000	0.000929	0.000009
294.157000	0.000970	0.000010
294.258000	0.001009	0.000010
294.359000	0.001030	0.000010
294.465000	0.001040	0.000010
294.572000	0.001033	0.000010
294.676000	0.001030	0.000010
294.781000	0.000862	0.000009
294.884000	0.000845	0.000008
294.987000	0.000942	0.000009
295.094000	0.000899	0.000009
295.204000	0.000865	0.000009
295.313000	0.000832	0.000008
295.422000	0.000797	0.000008
295.530000	0.000800	0.000008
295.633000	0.000838	0.000008
295.738000	0.000916	0.000009
295.845000	0.001046	0.000010
295.950000	0.001224	0.000012
296.054000	0.001457	0.000015
296.163000	0.001750	0.000017
296.279000	0.002111	0.000021
296.399000	0.002513	0.000025
296.522000	0.002950	0.000029
296.649000	0.003393	0.000034
296.774000	0.003833	0.000038
296.901000	0.004262	0.000043
297.022000	0.004655	0.000047
297.142000	0.005018	0.000050
297.261000	0.005316	0.000053
297.378000	0.005547	0.000055
297.490000	0.005731	0.000057
297.595000	0.005839	0.000058
297.694000	0.005902	0.000059
297.784000	0.005881	0.000059
297.863000	0.005857	0.000059
297.936000	0.005800	0.000058
298.006000	0.005719	0.000057
298.072000	0.005612	0.000056
298.134000	0.005502	0.000055
298.193000	0.005379	0.000054
298.250000	0.005256	0.000053
298.305000	0.005143	0.000051
298.359000	0.005055	0.000051
298.407000	0.004970	0.000050
298.449000	0.004900	0.000049
298.489000	0.004856	0.000049
298.528000	0.004822	0.000048
298.570000	0.004816	0.000048
298.613000	0.004850	0.000049
298.659000	0.004924	0.000049
298.703000	0.005046	0.000050
298.749000	0.005221	0.000052
298.800000	0.005435	0.000054
298.854000	0.005673	0.000057
298.912000	0.005907	0.000059
298.973000	0.006142	0.000061
299.036000	0.006359	0.000064
299.098000	0.006544	0.000065
299.155000	0.006769	0.000068
299.205000	0.006908	0.000069
299.252000	0.007001	0.000070
299.297000	0.007089	0.000071
299.343000	0.007175	0.000072
299.390000	0.007222	0.000072
299.437000	0.007265	0.000073
299.486000	0.007308	0.000073
299.533000	0.007353	0.000074
299.579000	0.007384	0.000074
299.623000	0.007426	0.000074
299.668000	0.007457	0.000075
299.713000	0.007490	0.000075
299.762000	0.007528	0.000075
299.812000	0.007571	0.000076
299.862000	0.007609	0.000076
299.913000	0.007647	0.000076
299.957000	0.007702	0.000077
299.996000	0.007742	0.000077
300.033000	0.007808	0.000078
300.069000	0.007889	0.000079
300.105000	0.007995	0.000080
300.144000	0.008144	0.000081
300.184000	0.008324	0.000083
300.226000	0.008546	0.000085
300.268000	0.008690	0.000087
300.311000	0.008917	0.000089
300.354000	0.009130	0.000091
300.397000	0.009303	0.000093
300.440000	0.009443	0.000094
300.483000	0.009602	0.000096
300.526000	0.009738	0.000097
300.565000	0.009852	0.000099
300.604000	0.009906	0.000099
300.642000	0.009932	0.000099
300.680000	0.009940	0.000099
300.716000	0.009917	0.000099
300.748000	0.009876	0.000099
300.780000	0.009831	0.000098
300.808000	0.009777	0.000098
300.835000	0.009716	0.000097
300.863000	0.009647	0.000096
300.891000	0.009585	0.000096
300.919000	0.009509	0.000095
300.949000	0.009437	0.000094
300.977000	0.009359	0.000094
301.007000	0.009282	0.000093
301.037000	0.009201	0.000092
301.069000	0.009128	0.000091
301.104000	0.009068	0.000091
301.146000	0.008870	0.000089
301.195000	0.008828	0.000088
301.247000	0.008799	0.000088
301.300000	0.008797	0.000088
301.353000	0.008854	0.000089
301.405000	0.008936	0.000089
301.453000	0.009058	0.000091
301.500000	0.009211	0.000092
301.546000	0.009403	0.000094
301.594000	0.009573	0.000096
301.647000	0.009733	0.000097
301.704000	0.009877	0.000099
301.763000	0.009987	0.000100
301.820000	0.010066	0.000101
301.877000	0.010137	0.000101
301.926000	0.010196	0.000102
301.968000	0.010237	0.000102
302.004000	0.010262	0.000103
302.035000	0.010292	0.000103
302.061000	0.010308	0.000103
302.081000	0.010326	0.000103
302.093000	0.010340	0.000103
302.103000	0.010338	0.000103
302.114000	0.010343	0.000103
302.130000	0.010339	0.000103
302.154000	0.010340	0.000103
302.187000	0.010370	0.000104
302.226000	0.010405	0.000104
302.265000	0.010438	0.000104
302.302000	0.010471	0.000105
302.334000	0.010505	0.000105
302.364000	0.010554	0.000106
302.390000	0.010624	0.000106
302.416000	0.010682	0.000107
302.446000	0.010747	0.000107
302.478000	0.010839	0.000108
302.512000	0.010948	0.000109
302.547000	0.011070	0.000111
302.582000	0.011221	0.000112
302.616000	0.011390	0.000114
302.650000	0.011575	0.000116
302.679000	0.011791	0.000118
302.706000	0.011979	0.000120
302.732000	0.012142	0.000121
302.755000	0.012277	0.000123
302.771000	0.012371	0.000124
302.782000	0.012444	0.000124
302.791000	0.012479	0.000125
302.800000	0.012502	0.000125
302.814000	0.012511	0.000125
302.830000	0.012501	0.000125
302.850000	0.012489	0.000125
302.873000	0.012426	0.000124
302.898000	0.012350	0.000123
302.921000	0.012260	0.000123
302.944000	0.012211	0.000122
302.967000	0.012135	0.000121
302.991000	0.012060	0.000121
303.010000	0.011983	0.000120
303.023000	0.011905	0.000119
303.033000	0.011828	0.000118
303.039000	0.011757	0.000118
303.039000	0.011677	0.000117
303.034000	0.011604	0.000116
303.031000	0.011529	0.000115
303.024000	0.011468	0.000115
303.016000	0.011416	0.000114
303.005000	0.011379	0.000114
302.995000	0.011380	0.000114
302.988000	0.011397	0.000114
302.982000	0.011433	0.000114
302.979000	0.011505	0.000115
302.979000	0.011599	0.000116
302.979000	0.011716	0.000117
302.974000	0.011842	0.000118
302.969000	0.011966	0.000120
302.962000	0.012092	0.000121
302.951000	0.012203	0.000122
302.944000	0.012291	0.000123
302.937000	0.012334	0.000123
302.935000	0.012402	0.000124
302.938000	0.012461	0.000125
302.943000	0.012519	0.000125
302.954000	0.012573	0.000126
302.967000	0.012621	0.000126
302.979000	0.012670	0.000127
302.991000	0.012720	0.000127
303.006000	0.012761	0.000128
303.024000	0.012806	0.000128
303.043000	0.012846	0.000128
303.067000	0.012879	0.000129
303.099000	0.012903	0.000129
303.137000	0.012931	0.000129
303.177000	0.012956	0.000130
303.216000	0.012979	0.000130
303.255000	0.013005	0.000130
303.297000	0.013030	0.000130
303.338000	0.013049	0.000130
303.376000	0.013036	0.000130
303.410000	0.013058	0.000131
303.442000	0.013100	0.000131
303.466000	0.013145	0.000131
303.488000	0.013199	0.000132
303.511000	0.013262	0.000133
303.535000	0.013341	0.000133
303.558000	0.013397	0.000134
303.576000	0.013448	0.000134
303.589000	0.013480	0.000135
303.592000	0.013475	0.000135
303.589000	0.013480	0.000135
303.581000	0.013466	0.000135
303.567000	0.013448	0.000134
303.548000	0.013414	0.000134
303.527000	0.013375	0.000134
303.503000	0.013322	0.000133
303.476000	0.013264	0.000133
303.450000	0.013199	0.000132
303.426000	0.013134	0.000131
303.407000	0.013060	0.000131
303.397000	0.012995	0.000130
303.402000	0.012927	0.000129
303.418000	0.012862	0.000129
303.440000	0.012789	0.000128
303.463000	0.012723	0.000127
303.484000	0.012666	0.000127
303.505000	0.012589	0.000126
303.525000	0.012527	0.000125
303.543000	0.012472	0.000125
303.561000	0.012439	0.000124
303.582000	0.012418	0.000124
303.603000	0.012413	0.000124
303.624000	0.012402	0.000124
303.644000	0.012406	0.000124
303.670000	0.012455	0.000125
303.702000	0.012525	0.000125
303.739000	0.012609	0.000126
303.780000	0.012720	0.000127
303.829000	0.012851	0.000129
303.884000	0.013005	0.000130
303.941000	0.013150	0.000131
304.000000	0.013300	0.000133
304.059000	0.013422	0.000134
304.120000	0.013545	0.000135
304.182000	0.013647	0.000136
304.240000	0.013733	0.000137
304.295000	0.013806	0.000138
304.346000	0.013877	0.000139
304.392000	0.013937	0.000139
304.437000	0.013991	0.000140
304.484000	0.014036	0.000140
304.530000	0.014083	0.000141
304.576000	0.014127	0.000141
304.624000	0.014217	0.000142
304.669000	0.014342	0.000143
304.708000	0.014422	0.000144
304.738000	0.014477	0.000145
304.767000	0.014542	0.000145
304.795000	0.014600	0.000146
304.823000	0.014665	0.000147
304.850000	0.014717	0.000147
304.878000	0.014760	0.000148
304.908000	0.014793	0.000148
304.936000	0.014850	0.000149
304.961000	0.014879	0.000149
304.982000	0.014913	0.000149
304.999000	0.014963	0.000150
305.014000	0.015022	0.000150
305.030000	0.015085	0.000151
305.048000	0.015150	0.000152
305.069000	0.015222	0.000152
305.090000	0.015299	0.000153
305.109000	0.015360	0.000154
305.121000	0.015406	0.000154
305.129000	0.015424	0.000154
305.131000	0.015410	0.000154
305.127000	0.015364	0.000154
305.124000	0.015305	0.000153
305.117000	0.015246	0.000152
305.109000	0.015171	0.000152
305.098000	0.015137	0.000151
305.093000	0.015060	0.000151
305.099000	0.014971	0.000150
305.115000	0.014873	0.000149
305.139000	0.014771	0.000148
305.169000	0.014662	0.000147
305.208000	0.014542	0.000145
305.252000	0.014426	0.000144
305.302000	0.014308	0.000143
305.355000	0.014179	0.000142
305.410000	0.014064	0.000141
305.470000	0.013954	0.000140
305.532000	0.013845	0.000138
305.596000	0.013741	0.000137
305.651000	0.013654	0.000137
305.693000	0.013582	0.000136
305.720000	0.013521	0.000135
305.734000	0.013479	0.000135
305.739000	0.013476	0.000135
305.742000	0.013535	0.000135
305.745000	0.013488	0.000135
305.749000	0.013600	0.000136
305.753000	0.013764	0.000138
305.758000	0.013956	0.000140
305.763000	0.014165	0.000142
305.769000	0.014406	0.000144
305.771000	0.014670	0.000147
305.771000	0.014916	0.000149
305.767000	0.015147	0.000151
305.760000	0.015345	0.000153
305.750000	0.015530	0.000155
305.739000	0.015704	0.000157
305.731000	0.015856	0.000159
305.725000	0.016000	0.000160
305.720000	0.016134	0.000161
305.717000	0.016263	0.000163
305.717000	0.016392	0.000164
305.719000	0.016523	0.000165
305.723000	0.016647	0.000166
305.726000	0.016767	0.000168
305.730000	0.016875	0.000169
305.734000	0.016979	0.000170
305.737000	0.017075	0.000171
305.737000	0.017177	0.000172
305.739000	0.017271	0.000173
305.741000	0.017410	0.000174
305.743000	0.017521	0.000175
305.749000	0.017622	0.000176
305.757000	0.017719	0.000177
305.766000	0.017790	0.000178
305.781000	0.017833	0.000178
305.799000	0.017874	0.000179
305.815000	0.017922	0.000179
305.827000	0.017954	0.000180
305.836000	0.017975	0.000180
305.844000	0.017991	0.000180
305.849000	0.018001	0.000180
305.851000	0.017994	0.000180
305.850000	0.017967	0.000180
305.849000	0.017908	0.000179
305.852000	0.017842	0.000178
305.854000	0.017745	0.000177
305.856000	0.017621	0.000176
305.852000	0.017481	0.000175
305.844000	0.017342	0.000173
305.829000	0.017194	0.000172
305.809000	0.017043	0.000170
305.789000	0.016874	0.000169
305.771000	0.016712	0.000167
305.756000	0.016544	0.000165
305.746000	0.016340	0.000163
305.737000	0.016166	0.000162
305.731000	0.015979	0.000160
305.725000	0.015867	0.000159
305.719000	0.015677	0.000157
305.709000	0.015534	0.000155
305.693000	0.015381	0.000154
305.670000	0.015231	0.000152
305.643000	0.015089	0.000151
305.616000	0.014941	0.000149
305.590000	0.014805	0.000148
305.560000	0.014689	0.000147
305.527000	0.014587	0.000146
305.492000	0.014506	0.000145
305.458000	0.014477	0.000145
305.429000	0.014487	0.000145
305.404000	0.014533	0.000145
305.383000	0.014613	0.000146
305.366000	0.014752	0.000148
305.358000	0.014903	0.000149
305.361000	0.015066	0.000151
305.375000	0.015235	0.000152
305.396000	0.015393	0.000154
305.422000	0.015540	0.000155
305.448000	0.015656	0.000157
305.472000	0.015794	0.000158
305.494000	0.015942	0.000159
305.513000	0.016082	0.000161
305.533000	0.016230	0.000162
305.550000	0.016407	0.000164
305.566000	0.016545	0.000165
305.584000	0.016661	0.000167
305.607000	0.016769	0.000168
305.636000	0.016868	0.000169
305.668000	0.016957	0.000170
305.702000	0.017044	0.000170
305.734000	0.017132	0.000171
305.761000	0.017211	0.000172
305.783000	0.017290	0.000173
305.799000	0.017352	0.000174
305.812000	0.017404	0.000174
305.820000	0.017465	0.000175
305.827000	0.017530	0.000175
305.833000	0.017585	0.000176
305.841000	0.017618	0.000176
305.849000	0.017673	0.000177
305.859000	0.017731	0.000177
305.870000	0.017810	0.000178
305.884000	0.017904	0.000179
305.897000	0.017988	0.000180
305.908000	0.018211	0.000182
305.919000	0.018369	0.000184
305.929000	0.018462	0.000185
305.935000	0.018574	0.000186
305.941000	0.018672	0.000187
305.948000	0.018698	0.000187
305.956000	0.018693	0.000187
305.966000	0.018659	0.000187
305.978000	0.018599	0.000186
305.991000	0.018528	0.000185
306.005000	0.018446	0.000184
306.019000	0.018344	0.000183
306.034000	0.018248	0.000182
306.051000	0.018152	0.000182
306.068000	0.018050	0.000181
306.087000	0.017942	0.000179
306.109000	0.017826	0.000178
306.129000	0.017710	0.000177
306.153000	0.017585	0.000176
306.178000	0.017461	0.000175
306.206000	0.017334	0.000173
306.232000	0.017205	0.000172
306.257000	0.017081	0.000171
306.280000	0.016955	0.000170
306.302000	0.016850	0.000169
306.322000	0.016695	0.000167
306.343000	0.016597	0.000166
306.365000	0.016517	0.000165
