Time Load Crosshead Temperature Chamber Stress Strain 
0.060 76.720 0.00000 -3.90 77.978 20.075
2.000 16.401 -0.00228 -3.90 16.670 20.034
3.000 11.704 -0.00255 -3.90 11.896 20.037
4.000 9.693 -0.00270 -4.00 9.852 20.029
5.000 8.699 -0.00280 0.00 8.841 20.031
6.000 8.129 -0.00286 0.00 8.262 20.031
6.550 7.921 -0.00289 0.00 8.051 20.030
8.000 9.011 -0.00280 -4.20 9.159 20.028
9.000 10.559 -0.00271 -4.20 10.732 20.037
10.000 12.306 -0.00261 -4.20 12.508 20.028
11.000 14.284 -0.00252 -4.20 14.518 20.036
12.000 16.330 -0.00242 -4.20 16.598 20.038
13.000 18.590 -0.00232 -4.30 18.895 20.037
13.500 19.684 -0.00228 -4.30 20.007 20.038
14.630 20.137 -0.00227 -4.30 20.467 20.036
16.000 22.954 -0.00215 -4.40 23.330 20.041
17.000 25.522 -0.00206 -4.40 25.940 20.047
18.000 28.068 -0.00196 -4.40 28.529 20.044
19.000 30.648 -0.00186 -4.50 31.150 20.047
20.000 33.565 -0.00176 -4.60 34.115 20.060
21.000 36.580 -0.00166 -4.60 37.180 20.047
23.000 40.067 -0.00157 -4.70 40.724 20.060
25.000 45.038 -0.00141 -4.70 45.776 20.065
26.000 47.838 -0.00131 -4.80 48.623 20.058
27.000 51.054 -0.00121 -4.80 51.891 20.053
28.000 53.932 -0.00111 -4.90 54.817 20.069
29.000 57.134 -0.00102 -4.90 58.070 20.074
31.000 59.564 -0.00095 -4.90 60.540 20.071
32.000 59.923 -0.00096 -5.00 60.906 20.068
33.000 59.364 -0.00098 -5.00 60.338 20.074
34.000 59.527 -0.00099 -5.10 60.503 20.074
35.000 58.727 -0.00100 0.00 59.690 20.073
36.000 58.506 -0.00100 0.00 59.465 20.068
37.000 59.084 -0.00100 0.00 60.053 20.074
38.000 59.227 -0.00100 -5.30 60.198 20.071
39.000 59.757 -0.00100 -5.30 60.737 20.073
40.000 59.340 -0.00101 -5.40 60.313 20.071
41.000 59.380 -0.00102 -5.50 60.354 20.074
42.000 59.537 -0.00104 -5.50 60.513 20.077
43.000 59.090 -0.00106 -5.50 60.059 20.074
44.000 59.523 -0.00106 -5.60 60.499 20.074
45.000 59.318 -0.00108 -5.60 60.291 20.077
46.000 59.606 -0.00109 -5.60 60.584 20.078
47.000 59.444 -0.00111 -5.60 60.418 20.078
48.000 59.530 -0.00113 -5.60 60.506 20.081
49.000 59.528 -0.00115 -5.70 60.504 20.078
50.000 59.498 -0.00117 -5.70 60.474 20.078
51.000 58.970 -0.00118 -5.70 59.937 20.081
52.000 58.979 -0.00118 -5.70 59.946 20.084
53.000 59.198 -0.00118 -5.80 60.168 20.078
54.000 59.268 -0.00119 -5.80 60.240 20.078
55.000 59.218 -0.00119 -5.90 60.189 20.081
56.000 59.010 -0.00119 -6.00 59.977 20.078
57.000 59.515 -0.00120 -6.00 60.491 20.078
58.000 59.295 -0.00121 -6.00 60.267 20.081
59.000 59.552 -0.00123 -6.00 60.528 20.084
60.000 59.427 -0.00125 -6.10 60.402 20.080
61.000 59.463 -0.00126 -6.10 60.438 20.080
62.000 59.347 -0.00128 -6.10 60.320 20.083
63.000 59.307 -0.00129 -6.10 60.280 20.080
64.000 59.055 -0.00130 -6.10 60.023 20.080
65.000 58.641 -0.00130 -6.10 59.603 20.086
66.000 59.018 -0.00130 -6.20 59.986 20.077
67.000 59.130 -0.00130 0.00 60.099 20.083
68.000 59.330 -0.00130 0.00 60.303 20.083
69.000 58.338 -0.00130 0.00 59.295 20.086
70.000 58.463 -0.00129 -6.40 59.422 20.086
71.000 58.559 -0.00128 -6.40 59.519 20.089
72.000 58.938 -0.00127 -6.50 59.904 20.098
73.000 59.714 -0.00127 -6.60 60.693 20.093
74.000 59.714 -0.00128 -6.60 60.693 20.092
75.000 59.651 -0.00130 -6.60 60.629 20.093
76.000 59.568 -0.00132 -6.70 60.545 20.102
77.000 59.220 -0.00133 -6.70 60.191 20.090
78.000 59.475 -0.00135 -6.70 60.450 20.096
79.000 58.969 -0.00136 -6.80 59.936 20.093
80.000 59.115 -0.00136 -6.80 60.084 20.096
81.000 59.271 -0.00137 -6.90 60.242 20.090
82.000 59.355 -0.00138 -6.90 60.328 20.087
83.000 59.443 -0.00139 -6.90 60.417 20.088
84.000 59.469 -0.00141 -7.00 60.444 20.084
85.000 59.772 -0.00143 -7.00 60.752 20.100
86.000 59.751 -0.00146 -7.00 60.731 20.093
87.000 59.376 -0.00148 -7.00 60.350 20.096
88.000 59.280 -0.00150 -7.10 60.252 20.097
89.000 59.075 -0.00151 -7.10 60.043 20.093
90.000 58.320 -0.00151 -7.10 59.276 20.099
91.000 58.726 -0.00150 -7.20 59.689 20.099
92.000 58.735 -0.00149 -7.20 59.698 20.102
93.000 59.128 -0.00148 -7.20 60.097 20.096
94.000 59.486 -0.00148 -7.30 60.461 20.086
95.000 59.866 -0.00150 -7.30 60.847 20.093
96.000 59.584 -0.00152 0.00 60.561 20.099
97.000 59.104 -0.00154 0.00 60.073 20.089
98.000 59.287 -0.00154 0.00 60.259 20.087
99.000 58.875 -0.00154 0.00 59.840 20.093
100.000 59.221 -0.00154 -7.50 60.192 20.090
101.000 58.391 -0.00155 -7.50 59.348 20.086
102.000 58.408 -0.00154 -7.50 59.366 20.077
103.000 58.664 -0.00153 -7.60 59.626 20.076
104.000 59.074 -0.00152 -7.60 60.042 20.090
105.000 59.883 -0.00152 -7.70 60.865 20.098
106.000 59.966 -0.00154 -7.70 60.949 20.089
107.000 59.586 -0.00157 -7.70 60.563 20.092
108.000 59.425 -0.00159 -7.80 60.399 20.086
109.000 59.268 -0.00160 -7.80 60.239 20.081
110.000 59.388 -0.00162 -7.80 60.361 20.089
111.000 58.288 -0.00162 -7.80 59.244 20.077
112.000 58.575 -0.00161 -8.00 59.535 20.077
113.000 58.899 -0.00161 -8.00 59.864 20.078
114.000 58.957 -0.00160 -8.00 59.923 20.080
115.000 59.423 -0.00160 -8.00 60.397 20.096
116.000 59.731 -0.00161 -8.00 60.711 20.091
117.000 59.913 -0.00163 -8.10 60.895 20.083
118.000 59.703 -0.00166 -8.10 60.681 20.090
119.000 59.703 -0.00169 -8.10 60.682 20.093
120.000 59.047 -0.00171 -8.10 60.015 20.090
121.000 59.170 -0.00171 -8.10 60.140 20.093
122.000 59.218 -0.00172 -8.20 60.189 20.090
123.000 58.800 -0.00172 -8.20 59.764 20.084
124.000 58.934 -0.00172 -8.20 59.900 20.081
125.000 57.402 -0.00171 -8.30 58.343 20.096
126.000 58.046 -0.00167 -8.50 58.998 20.093
127.000 59.192 -0.00165 -8.50 60.163 20.081
128.000 59.650 -0.00165 -8.60 60.628 20.075
129.000 60.002 -0.00167 -8.60 60.986 20.084
130.000 59.797 -0.00169 -8.60 60.777 20.088
131.000 59.674 -0.00172 -8.60 60.653 20.081
132.000 59.497 -0.00174 -8.60 60.472 20.091
133.000 58.849 -0.00175 -8.60 59.813 20.081
134.000 59.403 -0.00175 -8.70 60.377 20.081
135.000 59.212 -0.00177 -8.70 60.183 20.081
136.000 58.267 -0.00177 -8.70 59.223 20.099
137.000 59.005 -0.00176 -8.70 59.972 20.083
138.000 59.131 -0.00176 -8.80 60.101 20.077
139.000 59.481 -0.00176 -8.80 60.457 20.080
140.000 59.713 -0.00178 -8.90 60.692 20.075
141.000 59.166 -0.00179 -8.90 60.136 20.084
142.000 59.337 -0.00180 -8.90 60.310 20.086
143.000 59.006 -0.00180 -9.00 59.973 20.077
144.000 58.693 -0.00181 -9.00 59.655 20.089
145.000 57.876 -0.00180 -9.00 58.825 20.090
146.000 57.998 -0.00177 -9.10 58.949 20.098
147.000 58.963 -0.00175 -9.30 59.930 20.083
148.000 59.124 -0.00174 -9.30 60.094 20.083
149.000 59.746 -0.00175 -9.40 60.726 20.090
150.000 60.002 -0.00176 -9.40 60.986 20.076
151.000 59.899 -0.00179 -9.40 60.881 20.077
152.000 60.176 -0.00183 -9.40 61.163 20.074
153.000 59.052 -0.00185 -9.40 60.020 20.079
154.000 59.368 -0.00185 -9.40 60.341 20.080
155.000 59.434 -0.00187 -9.50 60.408 20.077
156.000 58.881 -0.00188 -9.50 59.846 20.092
157.000 59.397 -0.00188 -9.50 60.371 20.080
158.000 58.623 -0.00189 -9.60 59.584 20.089
159.000 58.617 -0.00189 -9.70 59.578 20.083
160.000 59.310 -0.00189 -9.70 60.282 20.080
161.000 59.032 -0.00189 -9.70 60.000 20.077
162.000 59.192 -0.00189 -9.70 60.162 20.080
163.000 59.360 -0.00189 -9.70 60.333 20.086
164.000 59.228 -0.00190 -9.80 60.199 20.084
165.000 59.739 -0.00191 -9.80 60.718 20.087
166.000 59.033 -0.00193 -9.80 60.001 20.090
167.000 59.283 -0.00194 -9.90 60.255 20.093
168.000 59.521 -0.00195 -9.90 60.497 20.090
169.000 59.546 -0.00198 -9.90 60.523 20.078
170.000 59.141 -0.00199 -9.90 60.110 20.090
171.000 58.946 -0.00199 -10.00 59.912 20.087
172.000 58.295 -0.00199 -10.00 59.251 20.096
173.000 58.313 -0.00198 -10.10 59.269 20.081
174.000 58.115 -0.00196 -10.10 59.068 20.087
175.000 58.855 -0.00194 -10.10 59.819 20.084
176.000 59.148 -0.00193 -10.20 60.118 20.078
177.000 59.351 -0.00193 -10.20 60.324 20.100
178.000 59.756 -0.00194 -10.30 60.735 20.087
179.000 59.209 -0.00195 -10.30 60.180 20.097
180.000 59.747 -0.00196 -10.30 60.727 20.090
181.000 59.713 -0.00199 -10.40 60.692 20.100
182.000 59.524 -0.00201 -10.40 60.500 20.090
183.000 59.422 -0.00203 -10.40 60.396 20.087
184.000 58.596 -0.00203 -10.40 59.556 20.090
185.000 58.720 -0.00203 -10.50 59.682 20.087
186.000 59.245 -0.00203 -10.50 60.216 20.084
187.000 60.004 -0.00203 -10.60 60.988 20.102
188.000 58.428 -0.00205 -10.60 59.386 20.081
189.000 57.561 -0.00204 -10.60 58.504 20.078
190.000 58.595 -0.00200 -10.70 59.556 20.080
191.000 59.041 -0.00199 -10.80 60.009 20.093
192.000 59.778 -0.00199 -10.80 60.758 20.089
193.000 59.219 -0.00200 -10.90 60.190 20.099
194.000 59.310 -0.00200 -10.90 60.282 20.102
195.000 59.804 -0.00202 -10.90 60.785 20.077
196.000 59.676 -0.00204 -11.00 60.654 20.093
197.000 59.626 -0.00207 -11.00 60.603 20.093
198.000 59.907 -0.00209 -11.00 60.889 20.093
199.000 58.924 -0.00211 -11.00 59.890 20.096
200.000 58.972 -0.00211 -11.00 59.939 20.089
201.000 59.668 -0.00211 -11.00 60.647 20.084
202.000 59.108 -0.00213 -11.10 60.077 20.093
203.000 59.509 -0.00214 -11.10 60.484 20.081
204.000 58.749 -0.00215 -11.10 59.713 20.092
205.000 58.726 -0.00215 -11.10 59.689 20.071
206.000 58.617 -0.00215 -11.20 59.578 20.089
207.000 58.393 -0.00213 -11.20 59.351 20.089
208.000 58.982 -0.00213 -11.20 59.949 20.092
209.000 58.953 -0.00212 -11.30 59.920 20.086
210.000 59.455 -0.00212 -11.30 60.429 20.071
211.000 59.438 -0.00213 -11.40 60.412 20.086
212.000 59.644 -0.00213 -11.40 60.622 20.086
213.000 59.590 -0.00216 -11.40 60.567 20.091
214.000 59.224 -0.00217 -11.50 60.195 20.070
215.000 59.530 -0.00218 -11.50 60.506 20.083
216.000 58.692 -0.00219 -11.50 59.655 20.077
217.000 59.187 -0.00219 -11.50 60.157 20.080
218.000 59.171 -0.00219 -11.60 60.142 20.083
219.000 59.358 -0.00219 -11.60 60.331 20.083
220.000 59.388 -0.00220 -11.60 60.362 20.086
221.000 59.338 -0.00222 -11.60 60.311 20.083
222.000 59.423 -0.00222 -11.60 60.398 20.083
223.000 59.608 -0.00225 -11.70 60.585 20.100
224.000 59.475 -0.00227 -11.70 60.451 20.086
225.000 58.754 -0.00228 -11.70 59.718 20.085
226.000 58.403 -0.00228 -11.80 59.361 20.080
227.000 58.991 -0.00227 -11.80 59.958 20.080
228.000 58.611 -0.00227 -11.80 59.572 20.086
229.000 58.634 -0.00226 -11.90 59.595 20.080
230.000 59.284 -0.00226 -11.90 60.256 20.089
231.000 59.175 -0.00226 -11.90 60.145 20.089
232.000 59.961 -0.00226 -12.00 60.944 20.087
233.000 59.772 -0.00228 -12.00 60.752 20.086
234.000 59.694 -0.00230 -12.00 60.673 20.089
235.000 59.032 -0.00232 -12.00 59.999 20.092
236.000 59.007 -0.00232 -12.00 59.974 20.089
237.000 59.017 -0.00232 -12.10 59.985 20.089
238.000 59.103 -0.00233 -12.10 60.072 20.086
239.000 59.778 -0.00234 -12.10 60.758 20.058
240.000 58.142 -0.00235 -12.10 59.095 20.089
241.000 58.320 -0.00234 -12.20 59.276 20.089
242.000 57.954 -0.00233 -12.20 58.904 20.089
243.000 57.382 -0.00228 -12.20 58.323 20.097
244.000 58.695 -0.00224 -12.40 59.657 20.061
245.000 58.694 -0.00223 -12.40 59.656 20.046
246.000 58.135 -0.00220 -12.40 59.088 20.081
247.000 59.055 -0.00218 -12.50 60.023 20.058
248.000 59.444 -0.00218 -12.50 60.418 20.058
249.000 59.962 -0.00219 -12.60 60.945 20.067
250.000 60.212 -0.00222 -12.60 61.200 20.053
251.000 59.260 -0.00224 -12.60 60.232 20.064
252.000 59.785 -0.00226 -12.70 60.765 20.075
253.000 59.837 -0.00229 -12.70 60.818 20.053
254.000 58.991 -0.00230 -12.70 59.959 20.062
255.000 59.835 -0.00231 -12.70 60.816 20.047
256.000 59.115 -0.00233 -12.80 60.085 20.066
257.000 59.468 -0.00233 -12.80 60.443 20.072
258.000 59.298 -0.00235 -12.80 60.270 20.066
259.000 59.329 -0.00236 -12.90 60.302 20.074
260.000 59.413 -0.00238 -12.90 60.387 20.065
261.000 58.945 -0.00239 -12.90 59.912 20.063
262.000 59.145 -0.00239 -13.00 60.115 20.058
263.000 58.923 -0.00239 -13.00 59.889 20.050
264.000 59.068 -0.00239 -13.00 60.036 20.060
265.000 59.283 -0.00239 -13.10 60.255 20.078
266.000 58.591 -0.00240 -13.10 59.552 20.063
267.000 58.970 -0.00239 -13.10 59.936 20.063
268.000 58.341 -0.00239 -13.20 59.297 20.066
269.000 58.719 -0.00238 -13.20 59.681 20.072
270.000 59.095 -0.00237 -13.30 60.064 20.059
271.000 58.700 -0.00237 -13.40 59.663 20.072
272.000 59.339 -0.00237 -13.40 60.312 20.063
273.000 59.518 -0.00237 -13.40 60.494 20.059
274.000 59.761 -0.00238 -13.40 60.741 20.075
275.000 59.936 -0.00240 -13.40 60.918 20.071
276.000 59.648 -0.00244 -13.40 60.626 20.081
277.000 59.965 -0.00247 -13.40 60.948 20.072
278.000 59.786 -0.00250 -13.40 60.766 20.072
279.000 58.282 -0.00252 -13.40 59.237 20.059
280.000 58.391 -0.00251 -13.50 59.348 20.061
281.000 58.716 -0.00250 -13.50 59.679 20.071
282.000 58.969 -0.00249 -13.60 59.936 20.062
283.000 58.840 -0.00249 -13.70 59.804 20.068
284.000 58.600 -0.00248 -13.70 59.561 20.058
285.000 59.352 -0.00247 -13.70 60.326 20.080
286.000 59.229 -0.00247 -13.80 60.200 20.077
287.000 59.033 -0.00247 -13.80 60.001 20.080
288.000 58.600 -0.00247 -13.80 59.560 20.080
289.000 59.082 -0.00247 -13.80 60.051 20.077
290.000 59.623 -0.00247 -13.90 60.601 20.074
291.000 60.170 -0.00248 -13.90 61.156 20.086
292.000 60.406 -0.00252 -13.90 61.397 20.083
293.000 59.068 -0.00254 -13.90 60.037 20.086
294.000 59.212 -0.00254 -14.00 60.183 20.083
295.000 58.749 -0.00255 -14.00 59.712 20.086
296.000 58.300 -0.00254 -14.00 59.256 20.086
297.000 59.240 -0.00254 -14.10 60.211 20.083
298.000 58.581 -0.00254 -14.10 59.541 20.092
299.000 59.102 -0.00253 -14.10 60.071 20.087
300.000 59.297 -0.00254 -14.20 60.269 20.083
301.000 58.769 -0.00254 -14.20 59.733 20.090
302.000 59.312 -0.00254 -14.30 60.285 20.084
303.000 58.923 -0.00254 -14.30 59.889 20.087
304.000 59.182 -0.00254 -14.30 60.152 20.090
305.000 59.148 -0.00254 -14.30 60.118 20.087
306.000 58.713 -0.00254 -14.40 59.676 20.084
307.000 59.472 -0.00254 -14.40 60.447 20.088
308.000 60.064 -0.00255 -14.40 61.049 20.087
309.000 59.447 -0.00257 -14.40 60.422 20.084
310.000 59.799 -0.00260 -14.40 60.779 20.081
311.000 59.148 -0.00262 -14.50 60.118 20.082
312.000 58.724 -0.00263 -14.50 59.687 20.091
313.000 59.504 -0.00263 -14.50 60.480 20.084
314.000 58.730 -0.00263 -14.50 59.693 20.090
315.000 58.277 -0.00262 -14.60 59.232 20.087
316.000 58.042 -0.00261 -14.60 58.993 20.088
317.000 57.252 -0.00256 -14.70 58.191 20.081
318.000 58.539 -0.00251 -14.90 59.499 20.087
319.000 59.118 -0.00250 -14.90 60.088 20.087
320.000 59.385 -0.00250 -14.90 60.359 20.084
321.000 60.269 -0.00251 -14.90 61.257 20.089
322.000 59.970 -0.00255 -14.90 60.954 20.090
323.000 59.480 -0.00257 -15.00 60.456 20.086
324.000 59.807 -0.00260 -15.00 60.787 20.087
325.000 59.406 -0.00262 -15.00 60.380 20.087
326.000 59.299 -0.00263 -15.00 60.271 20.087
327.000 59.070 -0.00265 -15.10 60.038 20.080
328.000 58.335 -0.00265 -15.10 59.292 20.090
329.000 58.816 -0.00264 -15.20 59.780 20.083
330.000 58.794 -0.00263 -15.20 59.758 20.086
331.000 59.452 -0.00263 -15.20 60.427 20.090
332.000 59.493 -0.00264 -15.30 60.469 20.086
333.000 59.576 -0.00264 -15.30 60.553 20.090
334.000 59.725 -0.00266 -15.30 60.704 20.086
335.000 60.001 -0.00269 -15.40 60.984 20.083
336.000 59.046 -0.00272 -15.40 60.015 20.089
337.000 58.899 -0.00272 -15.40 59.864 20.083
338.000 59.088 -0.00272 -15.40 60.057 20.089
339.000 59.312 -0.00273 -15.40 60.285 20.086
340.000 59.254 -0.00274 -15.40 60.226 20.086
341.000 58.720 -0.00275 -15.50 59.683 20.086
342.000 59.151 -0.00275 -15.50 60.121 20.086
343.000 59.040 -0.00275 -15.50 60.008 20.089
344.000 59.135 -0.00275 -15.60 60.105 20.086
345.000 57.903 -0.00274 -15.60 58.852 20.092
346.000 58.349 -0.00272 -15.60 59.305 20.085
347.000 59.070 -0.00271 -15.80 60.038 20.089
348.000 58.647 -0.00271 -15.80 59.609 20.086
349.000 59.383 -0.00270 -15.80 60.356 20.090
350.000 59.316 -0.00271 -15.90 60.289 20.092
351.000 58.930 -0.00271 -15.90 59.896 20.092
352.000 59.310 -0.00271 -15.90 60.282 20.087
353.000 58.658 -0.00271 -15.90 59.619 20.092
354.000 57.961 -0.00270 -15.90 58.911 20.095
355.000 58.950 -0.00269 -16.00 59.917 20.086
356.000 59.221 -0.00269 -16.10 60.192 20.090
357.000 59.690 -0.00269 -16.10 60.668 20.090
358.000 59.168 -0.00270 -16.10 60.138 20.090
359.000 59.663 -0.00271 -16.20 60.641 20.090
360.000 59.836 -0.00274 -16.20 60.817 20.093
361.000 58.446 -0.00275 -16.20 59.404 20.094
362.000 58.679 -0.00274 -16.30 59.641 20.090
363.000 59.771 -0.00274 -16.30 60.751 20.090
364.000 60.202 -0.00276 -16.40 61.189 20.090
365.000 59.853 -0.00280 -16.40 60.834 20.088
366.000 58.851 -0.00281 -16.40 59.816 20.093
367.000 59.239 -0.00281 -16.40 60.210 20.092
368.000 59.066 -0.00282 -16.50 60.034 20.094
369.000 59.788 -0.00283 -16.50 60.768 20.088
370.000 59.346 -0.00286 -16.50 60.319 20.091
371.000 59.344 -0.00287 -16.50 60.317 20.093
372.000 59.260 -0.00289 -16.50 60.231 20.087
373.000 59.094 -0.00289 -16.50 60.063 20.088
374.000 59.425 -0.00290 -16.60 60.400 20.086
375.000 58.964 -0.00291 -16.60 59.931 20.092
376.000 59.108 -0.00291 -16.60 60.077 20.096
377.000 58.981 -0.00291 -16.60 59.948 20.093
378.000 59.404 -0.00292 -16.60 60.378 20.089
379.000 58.955 -0.00293 -16.60 59.921 20.096
380.000 58.878 -0.00293 -16.70 59.843 20.092
381.000 59.076 -0.00293 -16.70 60.044 20.092
382.000 57.943 -0.00293 -16.70 58.893 20.101
383.000 58.256 -0.00291 -16.80 59.211 20.095
384.000 57.790 -0.00288 -16.80 58.738 20.099
385.000 58.616 -0.00285 -16.80 59.577 20.102
386.000 59.098 -0.00284 -16.90 60.067 20.099
387.000 59.407 -0.00284 -16.90 60.381 20.102
388.000 59.756 -0.00285 -17.00 60.735 20.093
389.000 59.581 -0.00286 -17.00 60.558 20.098
390.000 59.544 -0.00287 -17.00 60.520 20.092
391.000 59.855 -0.00289 -17.00 60.836 20.090
392.000 58.855 -0.00290 -17.10 59.820 20.090
393.000 59.175 -0.00290 -17.10 60.145 20.090
394.000 59.140 -0.00290 -17.10 60.110 20.097
395.000 59.325 -0.00291 -17.20 60.298 20.099
396.000 59.905 -0.00293 -17.20 60.887 20.092
397.000 59.424 -0.00296 -17.20 60.398 20.099
398.000 59.319 -0.00296 -17.20 60.292 20.096
399.000 58.707 -0.00297 -17.20 59.669 20.102
400.000 59.142 -0.00297 -17.20 60.112 20.096
401.000 58.000 -0.00297 -17.20 58.951 20.102
402.000 57.973 -0.00294 -17.30 58.923 20.100
403.000 58.807 -0.00293 -17.40 59.772 20.100
404.000 58.800 -0.00292 -17.40 59.764 20.100
405.000 59.560 -0.00292 -17.50 60.537 20.103
406.000 59.645 -0.00293 -17.50 60.623 20.103
407.000 59.575 -0.00294 -17.50 60.551 20.106
408.000 59.784 -0.00296 -17.60 60.764 20.103
409.000 58.963 -0.00298 -17.60 59.930 20.106
410.000 59.186 -0.00298 -17.60 60.157 20.102
411.000 59.761 -0.00300 -17.60 60.741 20.103
412.000 58.868 -0.00301 -17.70 59.834 20.099
413.000 59.461 -0.00301 -17.70 60.436 20.106
414.000 59.499 -0.00303 -17.70 60.475 20.103
415.000 59.473 -0.00304 -17.70 60.449 20.102
416.000 59.463 -0.00306 -17.70 60.438 20.106
417.000 58.115 -0.00307 -17.70 59.068 20.106
418.000 58.585 -0.00306 -17.80 59.546 20.103
419.000 58.096 -0.00304 -17.80 59.049 20.106
420.000 58.516 -0.00301 -17.90 59.475 20.105
421.000 59.191 -0.00300 -17.90 60.162 20.109
422.000 59.686 -0.00301 -17.90 60.664 20.105
423.000 60.232 -0.00302 -18.00 61.220 20.105
424.000 60.079 -0.00306 -18.00 61.064 20.105
425.000 59.543 -0.00309 -18.00 60.519 20.100
426.000 58.055 -0.00309 -18.00 59.007 20.109
427.000 58.372 -0.00307 -18.00 59.329 20.112
428.000 57.925 -0.00306 -18.00 58.875 20.114
429.000 58.084 -0.00301 -18.10 59.036 20.118
430.000 58.664 -0.00298 -18.20 59.626 20.109
431.000 59.295 -0.00298 -18.20 60.267 20.108
432.000 59.595 -0.00298 -18.30 60.572 20.109
433.000 59.865 -0.00300 -18.30 60.846 20.099
434.000 59.951 -0.00302 -18.30 60.934 20.109
435.000 59.896 -0.00305 -18.40 60.878 20.108
436.000 59.492 -0.00307 -18.40 60.468 20.109
437.000 59.395 -0.00310 -18.40 60.368 20.111
438.000 59.661 -0.00311 -18.40 60.639 20.105
439.000 59.490 -0.00313 -18.40 60.466 20.111
440.000 58.798 -0.00314 -18.40 59.762 20.109
441.000 59.356 -0.00314 -18.40 60.329 20.106
442.000 59.177 -0.00315 -18.40 60.147 20.111
443.000 59.168 -0.00316 -18.40 60.138 20.108
444.000 59.501 -0.00317 -18.50 60.476 20.108
445.000 59.181 -0.00319 -18.50 60.151 20.111
446.000 59.436 -0.00320 -18.50 60.411 20.105
447.000 59.384 -0.00321 -18.50 60.357 20.111
448.000 58.725 -0.00322 -18.60 59.688 20.111
449.000 58.748 -0.00322 -18.60 59.711 20.105
450.000 58.319 -0.00322 -18.60 59.275 20.114
451.000 58.857 -0.00320 -18.60 59.822 20.111
452.000 59.074 -0.00320 -18.60 60.043 20.105
453.000 58.378 -0.00320 -18.70 59.336 20.118
454.000 58.839 -0.00318 -18.80 59.804 20.108
455.000 58.938 -0.00317 -18.80 59.904 20.114
456.000 59.654 -0.00317 -18.80 60.633 20.108
457.000 59.982 -0.00319 -18.80 60.966 20.120
458.000 59.777 -0.00320 -18.80 60.757 20.114
459.000 59.778 -0.00323 -18.80 60.758 20.114
460.000 58.619 -0.00324 -18.80 59.581 20.117
461.000 58.676 -0.00324 -18.90 59.638 20.123
462.000 59.245 -0.00324 -18.90 60.216 20.108
463.000 58.607 -0.00323 -18.90 59.568 20.126
464.000 59.277 -0.00323 -19.00 60.249 20.123
465.000 58.615 -0.00323 -19.00 59.576 20.123
466.000 58.356 -0.00322 -19.00 59.313 20.120
467.000 59.049 -0.00321 -19.10 60.017 20.120
468.000 59.728 -0.00321 -19.10 60.707 20.123
469.000 60.330 -0.00322 -19.10 61.319 20.123
470.000 59.177 -0.00324 -19.10 60.147 20.123
471.000 59.181 -0.00325 -19.20 60.151 20.126
472.000 58.993 -0.00326 -19.20 59.960 20.130
473.000 58.912 -0.00326 -19.20 59.878 20.127
474.000 59.413 -0.00326 -19.20 60.387 20.127
475.000 59.134 -0.00326 -19.20 60.103 20.123
476.000 59.341 -0.00326 -19.30 60.314 20.129
477.000 57.810 -0.00327 -19.40 58.758 20.138
478.000 58.501 -0.00325 -19.40 59.460 20.123
479.000 59.133 -0.00325 -19.40 60.102 20.132
480.000 59.512 -0.00325 -19.50 60.487 20.132
481.000 59.892 -0.00325 -19.50 60.874 20.129
482.000 59.444 -0.00327 -19.50 60.419 20.130
483.000 59.496 -0.00328 -19.50 60.471 20.133
484.000 59.062 -0.00330 -19.50 60.030 20.133
485.000 58.525 -0.00330 -19.50 59.484 20.139
486.000 59.120 -0.00330 -19.60 60.089 20.130
487.000 58.883 -0.00330 -19.60 59.848 20.129
488.000 59.490 -0.00330 -19.70 60.465 20.127
489.000 58.576 -0.00330 -19.70 59.537 20.138
490.000 58.664 -0.00330 -19.70 59.626 20.129
491.000 59.289 -0.00329 -19.80 60.261 20.130
492.000 58.203 -0.00329 -19.80 59.157 20.132
493.000 58.579 -0.00328 -19.80 59.539 20.140
494.000 59.134 -0.00327 -19.90 60.103 20.142
495.000 58.997 -0.00327 -19.90 59.964 20.130
496.000 59.653 -0.00327 -19.90 60.632 20.138
497.000 59.506 -0.00328 -20.00 60.482 20.142
498.000 59.767 -0.00329 -20.00 60.747 20.142
499.000 59.089 -0.00330 -20.00 60.058 20.145
500.000 59.577 -0.00331 -20.00 60.553 20.148
501.000 58.812 -0.00332 -20.10 59.776 20.144
502.000 58.293 -0.00332 -20.10 59.249 20.145
503.000 59.085 -0.00331 -20.10 60.053 20.135
504.000 58.418 -0.00331 -20.20 59.376 20.150
505.000 58.322 -0.00328 -20.20 59.278 20.148
506.000 59.299 -0.00327 -20.30 60.272 20.142
507.000 59.860 -0.00328 -20.30 60.841 20.138
508.000 59.810 -0.00329 -20.30 60.791 20.142
509.000 59.936 -0.00332 -20.30 60.919 20.139
510.000 58.876 -0.00333 -20.30 59.842 20.151
511.000 58.610 -0.00333 -20.30 59.571 20.145
512.000 58.591 -0.00333 -20.40 59.552 20.139
513.000 58.279 -0.00331 -20.50 59.234 20.151
514.000 59.179 -0.00330 -20.50 60.150 20.142
515.000 58.672 -0.00330 -20.50 59.634 20.148
516.000 59.148 -0.00330 -20.50 60.118 20.151
517.000 58.768 -0.00330 -20.60 59.731 20.151
518.000 59.126 -0.00330 -20.70 60.095 20.148
519.000 59.270 -0.00330 -20.70 60.242 20.151
520.000 59.439 -0.00330 -20.70 60.413 20.154
521.000 59.606 -0.00331 -20.70 60.583 20.146
522.000 58.960 -0.00331 -20.70 59.927 20.151
523.000 59.237 -0.00331 -20.80 60.208 20.155
524.000 59.496 -0.00332 -20.80 60.471 20.151
525.000 58.328 -0.00333 -20.80 59.284 20.149
526.000 58.631 -0.00332 -20.80 59.592 20.152
527.000 58.826 -0.00332 -20.90 59.791 20.149
528.000 58.848 -0.00331 -20.90 59.812 20.149
529.000 59.149 -0.00331 -21.00 60.119 20.148
530.000 59.520 -0.00331 -21.00 60.496 20.154
531.000 59.226 -0.00332 -21.00 60.197 20.158
532.000 59.967 -0.00333 -21.00 60.950 20.151
533.000 58.932 -0.00334 -21.10 59.898 20.160
534.000 59.087 -0.00334 -21.10 60.056 20.161
535.000 59.082 -0.00335 -21.10 60.051 20.154
536.000 58.702 -0.00335 -21.20 59.665 20.157
537.000 58.867 -0.00335 -21.20 59.833 20.155
538.000 58.802 -0.00334 -21.20 59.766 20.152
539.000 59.424 -0.00334 -21.20 60.398 20.155
540.000 59.587 -0.00335 -21.20 60.564 20.156
541.000 59.672 -0.00335 -21.30 60.651 20.152
542.000 59.782 -0.00338 -21.30 60.762 20.154
543.000 59.012 -0.00340 -21.30 59.980 20.154
544.000 59.138 -0.00340 -21.30 60.108 20.155
545.000 59.016 -0.00341 -21.30 59.984 20.152
546.000 58.033 -0.00341 -21.30 58.984 20.163
547.000 58.604 -0.00340 -21.40 59.564 20.160
548.000 58.054 -0.00338 -21.40 59.005 20.161
549.000 58.386 -0.00335 -21.40 59.344 20.164
550.000 58.922 -0.00334 -21.50 59.888 20.157
551.000 59.264 -0.00334 -21.60 60.235 20.154
552.000 59.811 -0.00334 -21.60 60.792 20.157
553.000 59.646 -0.00336 -21.60 60.624 20.160
554.000 59.373 -0.00337 -21.60 60.346 20.157
555.000 59.632 -0.00339 -21.60 60.610 20.160
556.000 58.981 -0.00340 -21.70 59.948 20.157
557.000 59.495 -0.00340 -21.70 60.470 20.157
558.000 58.693 -0.00341 -21.70 59.655 20.157
559.000 59.131 -0.00341 -21.80 60.100 20.153
560.000 58.867 -0.00341 -21.80 59.832 20.154
561.000 58.940 -0.00341 -21.80 59.906 20.160
562.000 59.370 -0.00341 -21.90 60.343 20.151
563.000 57.921 -0.00340 -21.90 58.870 20.156
564.000 57.882 -0.00337 -21.90 58.831 20.166
565.000 58.857 -0.00335 -22.00 59.822 20.159
566.000 59.458 -0.00335 -22.00 60.433 20.166
567.000 59.807 -0.00335 -22.00 60.787 20.150
568.000 59.677 -0.00337 -22.00 60.656 20.154
569.000 59.322 -0.00337 -22.00 60.295 20.157
570.000 59.507 -0.00339 -22.00 60.482 20.159
571.000 58.978 -0.00340 -22.00 59.945 20.157
572.000 59.058 -0.00340 -22.10 60.027 20.157
573.000 58.512 -0.00340 -22.10 59.471 20.157
574.000 57.528 -0.00339 -22.10 58.471 20.160
575.000 58.397 -0.00336 -22.10 59.354 20.158
576.000 58.470 -0.00335 -22.20 59.428 20.159
577.000 59.165 -0.00333 -22.30 60.135 20.162
578.000 60.020 -0.00333 -22.30 61.004 20.157
579.000 59.908 -0.00335 -22.30 60.890 20.169
580.000 59.107 -0.00338 -22.30 60.076 20.162
581.000 58.790 -0.00338 -22.30 59.753 20.166
582.000 59.072 -0.00338 -22.30 60.041 20.169
583.000 59.035 -0.00338 -22.30 60.003 20.172
584.000 59.376 -0.00338 -22.30 60.350 20.169
585.000 58.612 -0.00338 -22.40 59.573 20.176
586.000 57.903 -0.00337 -22.50 58.852 20.177
587.000 58.717 -0.00336 -22.50 59.680 20.166
588.000 58.043 -0.00334 -22.50 58.994 20.172
589.000 58.110 -0.00330 -22.60 59.063 20.166
590.000 59.319 -0.00329 -22.60 60.291 20.164
591.000 59.783 -0.00329 -22.70 60.763 20.162
592.000 59.753 -0.00330 -22.70 60.733 20.167
593.000 59.132 -0.00331 -22.70 60.102 20.162
594.000 58.604 -0.00331 -22.70 59.564 20.163
595.000 59.183 -0.00331 -22.70 60.153 20.170
596.000 58.259 -0.00331 -22.70 59.214 20.167
597.000 58.532 -0.00330 -22.80 59.492 20.179
598.000 57.858 -0.00328 -22.90 58.807 20.180
599.000 58.211 -0.00324 -22.90 59.165 20.170
600.000 58.926 -0.00322 -23.00 59.892 20.167
601.000 59.128 -0.00321 -23.10 60.098 20.176
602.000 59.568 -0.00321 -23.10 60.544 20.179
603.000 60.060 -0.00322 -23.10 61.044 20.167
604.000 60.009 -0.00325 -23.10 60.993 20.166
605.000 59.894 -0.00328 -23.10 60.876 20.163
606.000 59.543 -0.00330 -23.10 60.519 20.163
607.000 59.320 -0.00331 -23.10 60.292 20.173
608.000 58.963 -0.00332 -23.10 59.930 20.178
609.000 58.933 -0.00332 -23.10 59.899 20.165
610.000 58.798 -0.00332 -23.10 59.762 20.173
611.000 59.455 -0.00332 -23.10 60.430 20.182
612.000 59.428 -0.00333 -23.10 60.403 20.179
613.000 58.249 -0.00333 -23.20 59.204 20.173
614.000 58.587 -0.00333 -23.20 59.547 20.182
615.000 58.363 -0.00332 -23.20 59.320 20.181
616.000 58.629 -0.00330 -23.30 59.591 20.172
617.000 59.035 -0.00329 -23.30 60.003 20.177
618.000 58.887 -0.00329 -23.30 59.852 20.175
619.000 59.577 -0.00329 -23.30 60.553 20.169
620.000 59.268 -0.00329 -23.30 60.240 20.178
621.000 59.362 -0.00330 -23.30 60.335 20.177
622.000 59.582 -0.00330 -23.40 60.559 20.178
623.000 59.395 -0.00331 -23.40 60.369 20.171
624.000 59.705 -0.00333 -23.40 60.684 20.169
625.000 59.041 -0.00334 -23.40 60.009 20.176
626.000 59.308 -0.00335 -23.40 60.280 20.171
627.000 59.373 -0.00335 -23.40 60.346 20.172
628.000 57.802 -0.00336 -23.40 58.750 20.181
629.000 57.645 -0.00333 -23.40 58.590 20.184
630.000 58.547 -0.00330 -23.60 59.507 20.175
631.000 58.384 -0.00328 -23.60 59.342 20.178
632.000 58.642 -0.00326 -23.60 59.604 20.171
633.000 58.290 -0.00325 -23.70 59.246 20.181
634.000 59.318 -0.00324 -23.70 60.291 20.172
635.000 59.033 -0.00324 -23.70 60.001 20.178
636.000 59.039 -0.00324 -23.70 60.007 20.180
637.000 59.490 -0.00324 -23.70 60.466 20.184
638.000 59.003 -0.00325 -23.80 59.970 20.184
639.000 59.007 -0.00325 -23.80 59.974 20.178
640.000 59.661 -0.00325 -23.80 60.639 20.178
641.000 59.475 -0.00326 -23.80 60.450 20.181
642.000 59.679 -0.00328 -23.80 60.657 20.181
643.000 59.451 -0.00330 -23.80 60.426 20.171
644.000 59.355 -0.00331 -23.80 60.328 20.178
645.000 59.361 -0.00332 -23.80 60.335 20.178
646.000 59.035 -0.00333 -23.80 60.003 20.181
647.000 58.750 -0.00333 -23.90 59.714 20.178
648.000 58.907 -0.00333 -23.90 59.873 20.184
649.000 58.330 -0.00333 -23.90 59.287 20.178
650.000 58.679 -0.00332 -24.00 59.641 20.178
651.000 58.649 -0.00330 -24.00 59.611 20.168
652.000 59.020 -0.00330 -24.00 59.987 20.178
653.000 58.847 -0.00330 -24.00 59.812 20.181
654.000 59.065 -0.00330 -24.00 60.033 20.172
655.000 58.737 -0.00330 -24.00 59.700 20.175
656.000 58.492 -0.00328 -24.10 59.452 20.178
657.000 59.020 -0.00328 -24.10 59.988 20.178
658.000 58.816 -0.00327 -24.10 59.780 20.172
659.000 59.325 -0.00327 -24.20 60.298 20.175
660.000 59.091 -0.00327 -24.10 60.060 20.178
661.000 59.176 -0.00327 -24.10 60.146 20.175
662.000 59.358 -0.00327 -24.20 60.331 20.181
663.000 59.402 -0.00327 -24.20 60.376 20.187
664.000 59.416 -0.00328 -24.20 60.390 20.184
665.000 59.498 -0.00329 -24.20 60.474 20.172
666.000 59.277 -0.00330 -24.20 60.249 20.184
667.000 59.388 -0.00331 -24.20 60.362 20.178
668.000 57.689 -0.00331 -24.20 58.635 20.184
669.000 58.197 -0.00329 -24.30 59.151 20.178
670.000 58.519 -0.00327 -24.30 59.478 20.182
671.000 58.683 -0.00326 -24.40 59.645 20.187
672.000 58.465 -0.00324 -24.40 59.423 20.188
673.000 59.295 -0.00324 -24.40 60.267 20.181
674.000 59.125 -0.00324 -24.40 60.094 20.185
675.000 59.276 -0.00324 -24.40 60.248 20.182
676.000 58.874 -0.00324 -24.40 59.839 20.182
677.000 57.782 -0.00323 -24.40 58.729 20.191
678.000 58.483 -0.00320 -24.50 59.442 20.187
679.000 58.495 -0.00318 -24.50 59.454 20.187
680.000 58.631 -0.00316 -24.60 59.592 20.191
681.000 58.622 -0.00315 -24.60 59.583 20.191
682.000 58.781 -0.00314 -24.60 59.745 20.188
683.000 58.904 -0.00313 -24.60 59.870 20.188
684.000 58.750 -0.00312 -24.70 59.713 20.193
685.000 58.986 -0.00311 -24.70 59.953 20.194
686.000 58.385 -0.00311 -24.70 59.342 20.191
687.000 58.745 -0.00310 -24.70 59.709 20.194
688.000 59.013 -0.00309 -24.70 59.981 20.193
689.000 58.388 -0.00308 -24.80 59.346 20.188
690.000 58.877 -0.00306 -24.80 59.842 20.188
691.000 58.479 -0.00305 -24.80 59.438 20.188
692.000 58.339 -0.00302 -24.90 59.295 20.194
693.000 58.693 -0.00300 -24.90 59.656 20.191
694.000 58.656 -0.00298 -24.90 59.617 20.194
695.000 58.785 -0.00296 -24.90 59.749 20.194
696.000 58.335 -0.00295 -24.90 59.292 20.194
697.000 58.635 -0.00293 -24.90 59.596 20.197
698.000 58.721 -0.00292 -25.00 59.684 20.197
699.000 58.824 -0.00291 -25.00 59.789 20.200
700.000 58.851 -0.00290 -25.00 59.816 20.194
701.000 58.820 -0.00290 -25.10 59.784 20.197
702.000 58.207 -0.00287 -25.10 59.162 20.200
703.000 58.583 -0.00285 -25.10 59.543 20.194
704.000 58.816 -0.00284 -25.20 59.780 20.197
705.000 58.354 -0.00281 -25.20 59.310 20.200
706.000 58.590 -0.00279 -25.20 59.551 20.197
707.000 58.267 -0.00277 -25.30 59.222 20.203
708.000 58.312 -0.00274 -25.30 59.268 20.200
709.000 58.417 -0.00272 -25.30 59.375 20.200
710.000 58.733 -0.00270 -25.30 59.696 20.197
711.000 58.797 -0.00269 -25.30 59.761 20.203
712.000 58.306 -0.00266 -25.40 59.262 20.202
713.000 58.157 -0.00263 -25.40 59.111 20.202
714.000 58.389 -0.00260 -25.40 59.347 20.202
715.000 58.290 -0.00257 -25.50 59.245 20.205
716.000 58.818 -0.00255 -25.60 59.783 20.206
717.000 58.897 -0.00255 -25.60 59.862 20.206
718.000 59.134 -0.00254 -25.60 60.103 20.204
719.000 58.578 -0.00254 -25.50 59.538 20.204
720.000 58.176 -0.00251 -25.50 59.130 20.205
721.000 58.540 -0.00249 -25.60 59.500 20.199
722.000 57.557 -0.00245 -25.60 58.501 20.208
723.000 57.417 -0.00239 -25.60 58.358 20.208
724.000 57.394 -0.00233 -25.70 58.335 20.214
725.000 57.809 -0.00227 -25.80 58.757 20.217
726.000 57.799 -0.00223 -25.80 58.746 20.214
727.000 56.916 -0.00216 -25.80 57.849 20.208
728.000 57.336 -0.00208 -25.90 58.276 20.214
729.000 57.612 -0.00202 -25.90 58.557 20.214
730.000 58.074 -0.00197 -25.90 59.026 20.215
731.000 58.466 -0.00194 -25.90 59.424 20.219
732.000 58.936 -0.00193 -25.90 59.903 20.220
733.000 58.877 -0.00192 -25.90 59.842 20.217
734.000 58.658 -0.00191 -26.00 59.620 20.217
735.000 58.537 -0.00189 -26.00 59.496 20.217
736.000 58.566 -0.00187 -26.00 59.527 20.214
737.000 58.379 -0.00185 -26.10 59.336 20.217
738.000 58.469 -0.00182 -26.10 59.428 20.220
739.000 58.827 -0.00181 -26.10 59.792 20.217
740.000 58.746 -0.00180 -26.10 59.709 20.221
741.000 58.875 -0.00180 -26.10 59.841 20.218
742.000 58.726 -0.00178 -26.10 59.689 20.221
743.000 58.849 -0.00178 -26.10 59.814 20.221
744.000 58.489 -0.00176 -26.10 59.448 20.219
745.000 58.419 -0.00174 -26.20 59.377 20.218
746.000 58.238 -0.00171 -26.20 59.193 20.221
747.000 58.522 -0.00168 -26.30 59.482 20.227
748.000 58.330 -0.00165 -26.30 59.286 20.224
749.000 58.431 -0.00163 -26.30 59.389 20.228
750.000 58.486 -0.00160 -26.30 59.445 20.224
751.000 58.308 -0.00157 -26.40 59.264 20.231
752.000 58.432 -0.00155 -26.40 59.390 20.228
753.000 58.742 -0.00153 -26.40 59.705 20.228
754.000 58.743 -0.00152 -26.40 59.706 20.221
755.000 58.731 -0.00151 -26.40 59.694 20.231
756.000 58.940 -0.00150 -26.40 59.907 20.228
757.000 58.625 -0.00150 -26.40 59.586 20.225
758.000 59.224 -0.00150 -26.40 60.195 20.228
759.000 58.486 -0.00149 -26.40 59.444 20.231
760.000 58.414 -0.00146 -26.50 59.372 20.231
761.000 57.892 -0.00143 -26.50 58.842 20.234
762.000 57.124 -0.00136 -26.50 58.060 20.237
763.000 57.149 -0.00129 -26.60 58.086 20.234
764.000 57.167 -0.00121 -26.60 58.104 20.244
765.000 57.534 -0.00114 -26.60 58.477 20.243
766.000 57.315 -0.00107 -26.70 58.254 20.249
767.000 57.716 -0.00101 -26.70 58.662 20.249
768.000 57.408 -0.00096 -26.70 58.349 20.246
769.000 58.091 -0.00091 -26.70 59.043 20.252
770.000 58.255 -0.00087 -26.70 59.210 20.252
771.000 58.323 -0.00084 -26.80 59.279 20.243
772.000 58.518 -0.00081 -26.80 59.477 20.250
773.000 58.729 -0.00079 -26.80 59.692 20.254
774.000 57.885 -0.00076 -26.80 58.834 20.258
775.000 58.168 -0.00072 -26.80 59.122 20.255
776.000 57.565 -0.00068 -26.80 58.509 20.257
777.000 57.623 -0.00062 -26.90 58.568 20.251
778.000 57.434 -0.00056 -27.00 58.375 20.248
779.000 56.768 -0.00049 -27.00 57.698 20.249
780.000 57.193 -0.00041 -27.00 58.130 20.251
781.000 57.141 -0.00033 -27.10 58.078 20.254
782.000 57.517 -0.00026 -27.10 58.460 20.249
783.000 57.454 -0.00020 -27.10 58.396 20.248
784.000 57.786 -0.00014 -27.20 58.734 20.252
785.000 58.223 -0.00010 -27.20 59.178 20.260
786.000 58.335 -0.00007 -27.20 59.291 20.263
787.000 58.649 -0.00005 -27.20 59.611 20.266
788.000 58.323 -0.00003 -27.20 59.279 20.266
789.000 58.548 -0.00001 -27.20 59.508 20.260
790.000 58.401 0.00002 -27.20 59.359 20.266
791.000 57.356 0.00006 -27.20 58.296 20.267
792.000 57.201 0.00013 -27.30 58.139 20.272
793.000 57.255 0.00020 -27.30 58.194 20.275
794.000 57.580 0.00027 -27.30 58.524 20.279
795.000 57.250 0.00033 -27.30 58.188 20.278
796.000 56.690 0.00041 -27.40 57.620 20.285
797.000 56.561 0.00051 -27.40 57.488 20.294
798.000 57.277 0.00060 -27.40 58.216 20.296
799.000 57.664 0.00066 -27.50 58.609 20.300
800.000 57.930 0.00071 -27.50 58.880 20.293
801.000 57.733 0.00076 -27.50 58.680 20.300
802.000 57.962 0.00081 -27.50 58.912 20.303
803.000 57.318 0.00086 -27.50 58.258 20.303
804.000 57.534 0.00093 -27.60 58.477 20.314
805.000 57.812 0.00098 -27.60 58.760 20.321
806.000 57.941 0.00103 -27.60 58.891 20.304
807.000 57.600 0.00107 -27.60 58.545 20.309
808.000 57.449 0.00114 -27.60 58.391 20.306
809.000 57.852 0.00120 -27.60 58.801 20.306
810.000 57.555 0.00125 -27.70 58.499 20.306
811.000 57.601 0.00131 -27.70 58.546 20.309
812.000 57.652 0.00137 -27.70 58.598 20.312
813.000 57.739 0.00142 -27.70 58.686 20.309
814.000 57.089 0.00148 -27.70 58.025 20.309
815.000 56.603 0.00157 -27.70 57.531 20.318
816.000 57.022 0.00166 -27.80 57.957 20.318
817.000 57.477 0.00173 -27.80 58.420 20.319
818.000 57.350 0.00180 -27.80 58.290 20.327
819.000 57.228 0.00187 -27.90 58.166 20.322
820.000 57.786 0.00193 -27.90 58.734 20.333
821.000 57.461 0.00198 -27.90 58.403 20.335
822.000 57.638 0.00205 -27.90 58.583 20.325
823.000 57.881 0.00210 -27.90 58.830 20.328
824.000 57.802 0.00215 -28.00 58.750 20.324
825.000 57.723 0.00220 -28.00 58.669 20.337
826.000 56.986 0.00226 -28.00 57.920 20.334
827.000 56.220 0.00235 -28.00 57.142 20.325
828.000 56.307 0.00246 -28.10 57.230 20.350
829.000 56.397 0.00257 -28.10 57.322 20.339
830.000 56.812 0.00267 -28.20 57.744 20.337
831.000 57.207 0.00276 -28.20 58.145 20.338
832.000 57.529 0.00283 -28.20 58.472 20.342
833.000 57.712 0.00289 -28.20 58.658 20.346
834.000 57.983 0.00294 -28.20 58.934 20.343
835.000 58.066 0.00298 -28.20 59.018 20.334
836.000 58.061 0.00302 -28.20 59.013 20.344
837.000 58.073 0.00306 -28.20 59.026 20.350
838.000 58.251 0.00310 -28.20 59.206 20.362
839.000 57.925 0.00313 -28.20 58.875 20.359
840.000 57.984 0.00318 -28.30 58.934 20.356
841.000 57.578 0.00322 -28.30 58.522 20.350
842.000 57.250 0.00329 -28.30 58.189 20.358
843.000 57.221 0.00336 -28.40 58.159 20.356
844.000 57.172 0.00344 -28.40 58.109 20.365
845.000 57.421 0.00351 -28.40 58.363 20.375
846.000 57.671 0.00357 -28.50 58.617 20.353
847.000 58.231 0.00361 -28.50 59.186 20.350
848.000 58.405 0.00364 -28.40 59.362 20.353
849.000 58.474 0.00367 -28.40 59.432 20.350
850.000 58.323 0.00369 -28.40 59.280 20.356
851.000 56.499 0.00374 -28.40 57.425 20.359
852.000 55.246 0.00387 -28.60 56.152 20.371
853.000 55.315 0.00402 -28.60 56.222 20.371
854.000 55.099 0.00418 -28.70 56.003 20.364
855.000 55.477 0.00433 -28.70 56.387 20.368
856.000 55.843 0.00447 -28.70 56.759 20.380
857.000 56.028 0.00460 -28.70 56.947 20.386
858.000 56.400 0.00471 -28.80 57.325 20.383
859.000 56.456 0.00482 -28.80 57.382 20.383
860.000 56.993 0.00491 -28.80 57.927 20.386
861.000 56.565 0.00501 -28.80 57.492 20.389
862.000 57.076 0.00509 -28.80 58.011 20.398
863.000 57.495 0.00517 -28.80 58.438 20.404
864.000 57.872 0.00522 -28.80 58.821 20.404
865.000 57.003 0.00528 -28.90 57.937 20.389
866.000 57.081 0.00536 -28.90 58.017 20.385
867.000 56.688 0.00544 -28.90 57.617 20.398
868.000 56.676 0.00554 -29.00 57.605 20.407
869.000 56.704 0.00563 -29.00 57.634 20.413
870.000 55.335 0.00575 -29.00 56.243 20.408
871.000 55.050 0.00591 -29.00 55.953 20.419
872.000 55.476 0.00606 -29.10 56.386 20.423
873.000 55.509 0.00620 -29.10 56.419 20.413
874.000 55.853 0.00634 -29.20 56.769 20.441
875.000 56.463 0.00646 -29.20 57.388 20.419
876.000 56.980 0.00655 -29.20 57.914 20.426
877.000 57.629 0.00662 -29.20 58.573 20.425
878.000 57.240 0.00669 -29.20 58.178 20.435
879.000 57.437 0.00676 -29.20 58.379 20.441
880.000 57.458 0.00682 -29.20 58.400 20.447
881.000 57.332 0.00689 -29.30 58.272 20.447
882.000 57.314 0.00696 -29.30 58.254 20.429
883.000 56.762 0.00704 -29.30 57.692 20.445
884.000 57.006 0.00713 -29.30 57.941 20.450
885.000 56.953 0.00721 -29.30 57.887 20.453
886.000 56.955 0.00729 -29.40 57.889 20.438
887.000 57.299 0.00737 -29.50 58.239 20.444
888.000 57.162 0.00744 -29.50 58.100 20.432
889.000 57.630 0.00750 -29.40 58.574 20.435
890.000 57.696 0.00756 -29.50 58.642 20.442
891.000 57.753 0.00761 -29.50 58.700 20.463
892.000 57.752 0.00766 -29.50 58.699 20.469
893.000 57.736 0.00771 -29.50 58.683 20.460
894.000 57.622 0.00776 -29.50 58.567 20.457
895.000 57.440 0.00782 -29.60 58.381 20.466
896.000 57.446 0.00789 -29.60 58.388 20.454
897.000 57.024 0.00795 -29.60 57.959 20.460
898.000 57.081 0.00804 -29.60 58.017 20.448
899.000 57.199 0.00811 -29.70 58.137 20.457
900.000 57.247 0.00818 -29.70 58.185 20.472
901.000 57.734 0.00824 -29.70 58.680 20.460
902.000 57.832 0.00830 -29.70 58.781 20.467
903.000 57.878 0.00834 -29.70 58.826 20.475
904.000 57.986 0.00839 -29.80 58.937 20.472
905.000 58.013 0.00843 -29.80 58.964 20.469
906.000 57.649 0.00847 -29.80 58.594 20.491
907.000 57.198 0.00854 -29.80 58.136 20.472
908.000 57.122 0.00861 -29.90 58.059 20.472
909.000 56.610 0.00870 -29.90 57.538 20.473
910.000 56.643 0.00879 -29.90 57.571 20.466
911.000 56.037 0.00890 -29.90 56.956 20.490
912.000 56.505 0.00902 -29.90 57.432 20.509
913.000 56.505 0.00911 -30.00 57.432 20.512
914.000 56.725 0.00921 -30.00 57.655 20.506
915.000 57.128 0.00930 -30.00 58.065 20.513
916.000 57.544 0.00937 -30.00 58.488 20.509
917.000 57.804 0.00942 -30.00 58.752 20.497
918.000 57.668 0.00947 -30.00 58.613 20.509
919.000 56.956 0.00954 -30.00 57.890 20.518
920.000 57.042 0.00962 -30.00 57.977 20.493
921.000 57.123 0.00970 -30.10 58.060 20.519
922.000 57.502 0.00976 -30.20 58.445 20.521
923.000 56.783 0.00983 -30.20 57.714 20.520
924.000 56.378 0.00994 -30.20 57.302 20.518
925.000 56.728 0.01003 -30.30 57.658 20.503
926.000 56.676 0.01013 -30.30 57.606 20.518
927.000 57.197 0.01022 -30.30 58.135 20.503
928.000 57.430 0.01029 -30.30 58.372 20.503
929.000 57.748 0.01035 -30.30 58.695 20.500
930.000 58.013 0.01039 -30.40 58.964 20.518
931.000 58.164 0.01043 -30.30 59.117 20.512
932.000 58.061 0.01047 -30.30 59.013 20.518
933.000 57.663 0.01052 -30.30 58.609 20.518
934.000 57.851 0.01056 -30.40 58.800 20.524
935.000 57.426 0.01062 -30.40 58.367 20.533
936.000 57.598 0.01068 -30.40 58.543 20.509
937.000 57.199 0.01074 -30.50 58.137 20.509
938.000 57.135 0.01082 -30.50 58.072 20.509
939.000 56.606 0.01091 -30.60 57.534 20.510
940.000 56.535 0.01101 -30.60 57.462 20.515
941.000 56.622 0.01110 -30.60 57.551 20.524
942.000 56.814 0.01120 -30.70 57.746 20.533
943.000 57.186 0.01128 -30.70 58.123 20.515
944.000 57.655 0.01135 -30.70 58.601 20.512
945.000 57.876 0.01140 -30.80 58.825 20.524
946.000 58.053 0.01144 -30.80 59.005 20.516
947.000 58.233 0.01148 -30.80 59.188 20.509
948.000 58.235 0.01151 -30.70 59.190 20.529
949.000 58.337 0.01154 -30.70 59.293 20.530
950.000 58.512 0.01157 -30.70 59.471 20.518
951.000 58.268 0.01160 -30.70 59.223 20.518
952.000 57.774 0.01163 -30.80 58.721 20.515
953.000 57.832 0.01168 -30.80 58.781 20.515
954.000 57.532 0.01174 -30.90 58.475 20.519
955.000 56.631 0.01181 -30.90 57.560 20.520
956.000 56.487 0.01191 -30.90 57.414 20.541
957.000 56.761 0.01201 -31.00 57.692 20.530
958.000 57.075 0.01209 -31.00 58.011 20.539
959.000 57.468 0.01217 -31.00 58.410 20.533
960.000 57.850 0.01222 -31.00 58.799 20.530
961.000 58.144 0.01226 -31.00 59.097 20.552
962.000 58.315 0.01230 -31.00 59.271 20.559
963.000 57.926 0.01233 -31.10 58.875 20.548
964.000 57.829 0.01238 -31.10 58.777 20.539
965.000 57.651 0.01243 -31.10 58.596 20.530
966.000 57.889 0.01248 -31.20 58.838 20.536
967.000 57.838 0.01252 -31.20 58.786 20.539
968.000 57.475 0.01259 -31.20 58.418 20.539
969.000 57.668 0.01265 -31.30 58.613 20.546
970.000 57.592 0.01271 -31.30 58.536 20.546
971.000 57.740 0.01277 -31.30 58.686 20.546
972.000 57.798 0.01281 -31.30 58.746 20.542
973.000 58.031 0.01286 -31.30 58.983 20.552
974.000 57.745 0.01290 -31.30 58.691 20.558
975.000 57.966 0.01295 -31.30 58.917 20.558
976.000 58.163 0.01299 -31.30 59.116 20.558
977.000 57.547 0.01303 -31.30 58.491 20.568
978.000 57.501 0.01309 -31.40 58.444 20.558
979.000 57.809 0.01315 -31.40 58.757 20.558
980.000 58.074 0.01319 -31.40 59.026 20.573
981.000 57.656 0.01324 -31.40 58.601 20.574
982.000 57.337 0.01330 -31.40 58.277 20.561
983.000 57.508 0.01336 -31.50 58.451 20.570
984.000 57.436 0.01342 -31.50 58.377 20.570
985.000 57.780 0.01348 -31.50 58.727 20.561
986.000 57.866 0.01353 -31.50 58.814 20.564
987.000 58.041 0.01357 -31.50 58.993 20.564
988.000 57.728 0.01362 -31.50 58.675 20.564
989.000 57.596 0.01368 -31.50 58.540 20.564
990.000 57.835 0.01373 -31.60 58.783 20.570
991.000 58.032 0.01377 -31.60 58.983 20.570
992.000 57.825 0.01382 -31.60 58.774 20.573
993.000 57.606 0.01387 -31.60 58.550 20.573
994.000 57.875 0.01392 -31.60 58.824 20.579
995.000 57.448 0.01398 -31.70 58.390 20.589
996.000 57.701 0.01404 -31.70 58.647 20.576
997.000 57.875 0.01409 -31.70 58.823 20.576
998.000 57.566 0.01415 -31.70 58.510 20.577
999.000 57.860 0.01420 -31.80 58.808 20.576
1000.000 57.973 0.01424 -31.80 58.924 20.582
1001.000 58.304 0.01428 -31.80 59.260 20.579
1002.000 58.372 0.01431 -31.80 59.329 20.582
1003.000 58.439 0.01434 -31.80 59.397 20.588
1004.000 58.537 0.01436 -31.80 59.497 20.582
1005.000 58.148 0.01439 -31.80 59.101 20.585
1006.000 58.175 0.01443 -31.80 59.129 20.591
1007.000 57.848 0.01446 -31.90 58.796 20.603
1008.000 57.918 0.01452 -31.90 58.867 20.619
1009.000 57.960 0.01456 -31.90 58.910 20.615
1010.000 57.134 0.01461 -32.00 58.071 20.601
1011.000 57.259 0.01469 -32.00 58.198 20.576
1012.000 57.170 0.01476 -32.00 58.107 20.579
1013.000 57.337 0.01483 -32.10 58.278 20.585
1014.000 57.721 0.01490 -32.10 58.667 20.585
1015.000 57.975 0.01494 -32.10 58.925 20.582
1016.000 58.315 0.01498 -32.20 59.271 20.591
1017.000 58.412 0.01501 -32.10 59.370 20.612
1018.000 58.584 0.01503 -32.10 59.545 20.609
1019.000 58.573 0.01505 -32.10 59.533 20.606
1020.000 58.454 0.01507 -32.20 59.412 20.595
1021.000 58.115 0.01510 -32.20 59.068 20.594
1022.000 58.255 0.01513 -32.20 59.210 20.581
1023.000 58.144 0.01517 -32.20 59.097 20.585
1024.000 58.100 0.01520 -32.20 59.052 20.588
1025.000 57.519 0.01525 -32.30 58.462 20.590
1026.000 57.716 0.01531 -32.30 58.663 20.594
1027.000 57.561 0.01536 -32.30 58.505 20.600
1028.000 57.745 0.01542 -32.40 58.691 20.600
1029.000 57.614 0.01547 -32.40 58.559 20.597
1030.000 57.864 0.01552 -32.40 58.813 20.588
1031.000 57.844 0.01557 -32.50 58.792 20.582
1032.000 58.184 0.01561 -32.50 59.138 20.579
1033.000 58.292 0.01565 -32.50 59.248 20.582
1034.000 58.163 0.01567 -32.50 59.117 20.588
1035.000 57.466 0.01572 -32.50 58.409 20.591
1036.000 57.381 0.01579 -32.60 58.322 20.609
1037.000 57.435 0.01585 -32.60 58.377 20.624
1038.000 57.732 0.01591 -32.60 58.678 20.628
1039.000 58.019 0.01596 -32.60 58.970 20.621
1040.000 58.003 0.01600 -32.60 58.954 20.621
1041.000 58.048 0.01605 -32.60 58.999 20.614
1042.000 58.226 0.01608 -32.70 59.181 20.609
1043.000 58.255 0.01611 -32.70 59.210 20.609
1044.000 58.272 0.01613 -32.70 59.228 20.606
1045.000 57.872 0.01617 -32.70 58.821 20.609
1046.000 57.984 0.01622 -32.80 58.934 20.616
1047.000 57.735 0.01626 -32.80 58.681 20.615
1048.000 57.939 0.01631 -32.80 58.889 20.611
1049.000 57.738 0.01636 -32.90 58.685 20.615
1050.000 57.697 0.01641 -32.90 58.642 20.609
1051.000 57.923 0.01645 -32.90 58.873 20.611
1052.000 57.759 0.01650 -32.90 58.706 20.610
1053.000 57.468 0.01656 -32.90 58.410 20.603
1054.000 57.827 0.01661 -33.00 58.775 20.613
1055.000 57.808 0.01666 -33.10 58.755 20.616
1056.000 57.920 0.01670 -33.10 58.869 20.616
1057.000 58.122 0.01675 -33.00 59.075 20.612
1058.000 58.317 0.01678 -33.00 59.274 20.616
1059.000 58.309 0.01681 -33.00 59.265 20.616
1060.000 58.443 0.01683 -33.10 59.402 20.618
1061.000 58.270 0.01686 -33.10 59.225 20.625
1062.000 58.313 0.01689 -33.10 59.269 20.615
1063.000 58.419 0.01692 -33.10 59.377 20.619
1064.000 58.433 0.01694 -33.10 59.391 20.616
1065.000 58.420 0.01696 -33.10 59.377 20.619
1066.000 57.922 0.01700 -33.10 58.871 20.625
1067.000 58.102 0.01704 -33.20 59.054 20.620
1068.000 57.725 0.01708 -33.20 58.671 20.612
1069.000 57.829 0.01713 -33.20 58.777 20.615
1070.000 58.079 0.01718 -33.30 59.032 20.620
1071.000 58.217 0.01721 -33.30 59.171 20.619
1072.000 58.343 0.01724 -33.30 59.299 20.618
1073.000 58.469 0.01727 -33.30 59.428 20.621
1074.000 58.459 0.01729 -33.30 59.417 20.625
1075.000 58.455 0.01731 -33.30 59.414 20.630
1076.000 58.358 0.01734 -33.30 59.315 20.631
1077.000 58.011 0.01737 -33.30 58.962 20.629
1078.000 58.137 0.01741 -33.40 59.091 20.628
1079.000 57.717 0.01745 -33.40 58.664 20.627
1080.000 57.536 0.01751 -33.40 58.479 20.628
1081.000 57.817 0.01757 -33.50 58.765 20.631
1082.000 58.040 0.01761 -33.50 58.992 20.627
1083.000 58.263 0.01765 -33.50 59.219 20.637
1084.000 58.237 0.01768 -33.50 59.192 20.637
1085.000 57.984 0.01772 -33.50 58.935 20.649
1086.000 57.879 0.01776 -33.50 58.828 20.653
1087.000 58.127 0.01780 -33.50 59.080 20.649
1088.000 58.209 0.01783 -33.50 59.164 20.649
1089.000 58.272 0.01787 -33.60 59.228 20.640
1090.000 58.318 0.01789 -33.60 59.274 20.647
1091.000 58.423 0.01792 -33.60 59.381 20.649
1092.000 58.560 0.01794 -33.60 59.520 20.649
1093.000 58.060 0.01797 -33.50 59.012 20.643
1094.000 58.007 0.01801 -33.50 58.958 20.652
1095.000 57.356 0.01806 -33.60 58.297 20.655
1096.000 57.674 0.01813 -33.70 58.620 20.664
1097.000 57.688 0.01818 -33.70 58.634 20.661
1098.000 57.783 0.01823 -33.70 58.730 20.664
1099.000 57.705 0.01828 -33.80 58.652 20.665
1100.000 57.415 0.01834 -33.80 58.356 20.670
1101.000 57.558 0.01841 -33.80 58.502 20.664
1102.000 57.848 0.01846 -33.90 58.796 20.667
1103.000 57.922 0.01851 -33.90 58.871 20.672
1104.000 58.003 0.01855 -33.90 58.954 20.679
1105.000 57.818 0.01859 -33.90 58.766 20.685
1106.000 58.081 0.01863 -33.90 59.034 20.680
1107.000 58.141 0.01867 -33.90 59.095 20.670
1108.000 58.396 0.01870 -33.90 59.354 20.667
1109.000 58.236 0.01873 -33.90 59.190 20.664
1110.000 57.586 0.01877 -34.00 58.530 20.669
1111.000 57.597 0.01883 -34.00 58.541 20.663
1112.000 57.679 0.01889 -34.00 58.625 20.664
1113.000 57.836 0.01894 -34.10 58.784 20.664
1114.000 57.950 0.01899 -34.10 58.900 20.658
1115.000 57.940 0.01903 -34.10 58.890 20.663
1116.000 58.123 0.01907 -34.20 59.075 20.663
1117.000 57.958 0.01911 -34.20 58.908 20.663
1118.000 58.057 0.01916 -34.20 59.009 20.670
1119.000 57.807 0.01920 -34.30 58.755 20.679
1120.000 57.829 0.01925 -34.30 58.778 20.661
1121.000 58.094 0.01929 -34.30 59.046 20.670
1122.000 58.227 0.01933 -34.30 59.181 20.672
1123.000 58.431 0.01936 -34.30 59.389 20.669
1124.000 58.164 0.01938 -34.30 59.117 20.669
1125.000 58.106 0.01942 -34.30 59.059 20.672
1126.000 58.198 0.01945 -34.40 59.152 20.685
1127.000 57.910 0.01949 -34.40 58.859 20.687
1128.000 58.121 0.01954 -34.40 59.074 20.681
1129.000 58.088 0.01957 -34.50 59.041 20.687
1130.000 58.192 0.01961 -34.50 59.146 20.675
1131.000 58.334 0.01964 -34.50 59.291 20.681
1132.000 58.430 0.01967 -34.60 59.388 20.672
1133.000 58.518 0.01969 -34.60 59.477 20.676
1134.000 58.607 0.01971 -34.50 59.568 20.672
1135.000 58.283 0.01974 -34.50 59.239 20.682
1136.000 58.369 0.01977 -34.50 59.326 20.675
1137.000 58.271 0.01980 -34.50 59.226 20.672
1138.000 57.684 0.01985 -34.60 58.629 20.673
1139.000 57.822 0.01989 -34.60 58.770 20.670
1140.000 57.824 0.01994 -34.70 58.772 20.676
1141.000 58.082 0.01999 -34.70 59.034 20.670
1142.000 57.999 0.02003 -34.70 58.950 20.673
1143.000 57.788 0.02007 -34.70 58.735 20.673
1144.000 57.910 0.02012 -34.80 58.859 20.682
1145.000 58.125 0.02017 -34.80 59.078 20.679
1146.000 58.344 0.02020 -34.80 59.301 20.682
1147.000 58.019 0.02023 -34.80 58.971 20.688
1148.000 58.040 0.02027 -34.80 58.992 20.688
1149.000 58.085 0.02031 -34.80 59.037 20.689
1150.000 58.149 0.02035 -34.80 59.102 20.692
1151.000 58.382 0.02038 -34.80 59.339 20.689
1152.000 58.176 0.02041 -34.90 59.129 20.689
1153.000 58.243 0.02044 -34.90 59.198 20.689
1154.000 57.975 0.02048 -34.90 58.926 20.691
1155.000 58.052 0.02052 -35.00 59.003 20.692
1156.000 58.153 0.02056 -35.00 59.106 20.689
1157.000 58.124 0.02059 -35.00 59.077 20.692
1158.000 58.075 0.02063 -35.00 59.027 20.695
1159.000 57.765 0.02067 -35.00 58.712 20.698
1160.000 58.070 0.02072 -35.10 59.022 20.692
1161.000 58.234 0.02075 -35.10 59.189 20.691
1162.000 58.166 0.02078 -35.10 59.119 20.691
1163.000 58.377 0.02082 -35.20 59.334 20.682
1164.000 57.991 0.02085 -35.20 58.942 20.686
1165.000 57.759 0.02090 -35.20 58.706 20.697
1166.000 57.946 0.02094 -35.20 58.897 20.698
1167.000 57.303 0.02100 -35.20 58.242 20.700
1168.000 57.381 0.02107 -35.20 58.322 20.691
1169.000 57.636 0.02112 -35.30 58.581 20.689


